#flipflop between high and low with a delay of 1us between changes
#timebase=40000000(ps)
,#voltbase=1000000(mv/100)
#size=4064
2.00E-07,0.040
4.00E-07,0.040
6.00E-07,0.000
8.00E-07,0.040
1.00E-06,0.040
1.20E-06,0.000
1.40E-06,0.000
1.60E-06,4.680
1.80E-06,4.760
2.00E-06,4.800
2.20E-06,4.800
2.40E-06,4.800
2.60E-06,4.880
2.80E-06,4.800
3.00E-06,4.880
3.20E-06,4.840
3.40E-06,4.840
3.60E-06,4.840
3.80E-06,4.840
4.00E-06,4.760
4.20E-06,4.760
4.40E-06,4.800
4.60E-06,4.760
4.80E-06,4.800
5.00E-06,4.840
5.20E-06,4.760
5.40E-06,4.760
5.60E-06,4.800
5.80E-06,4.760
6.00E-06,-0.040
6.20E-06,0.000
6.40E-06,-0.040
6.60E-06,-0.040
6.80E-06,-0.040
7.00E-06,-0.040
7.20E-06,-0.080
7.40E-06,-0.040
7.60E-06,-0.040
7.80E-06,0.000
8.00E-06,0.000
8.20E-06,-0.040
8.40E-06,-0.040
8.60E-06,-0.040
8.80E-06,-0.040
9.00E-06,-0.040
9.20E-06,-0.040
9.40E-06,-0.040
9.60E-06,-0.040
9.80E-06,0.000
1.00E-05,5.440
1.02E-05,4.840
1.04E-05,4.840
1.06E-05,4.760
1.08E-05,4.760
1.10E-05,4.800
1.12E-05,4.760
1.14E-05,4.800
1.16E-05,4.760
1.18E-05,4.760
1.20E-05,4.800
1.22E-05,4.760
1.24E-05,4.760
1.26E-05,4.800
1.28E-05,4.760
1.30E-05,4.800
1.32E-05,4.760
1.34E-05,4.760
1.36E-05,4.800
1.38E-05,4.840
1.40E-05,4.760
1.42E-05,4.800
1.44E-05,0.960
1.46E-05,-0.040
1.48E-05,0.000
1.50E-05,-0.040
1.52E-05,0.000
1.54E-05,0.000
1.56E-05,0.000
1.58E-05,-0.040
1.60E-05,-0.040
1.62E-05,-0.040
1.64E-05,0.040
1.66E-05,-0.040
1.68E-05,0.000
1.70E-05,-0.040
1.72E-05,-0.040
1.74E-05,-0.040
1.76E-05,-0.040
1.78E-05,-0.040
1.80E-05,-0.040
1.82E-05,-0.040
1.84E-05,0.040
1.86E-05,4.680
1.88E-05,4.720
1.90E-05,4.800
1.92E-05,4.800
1.94E-05,4.800
1.96E-05,4.880
1.98E-05,4.760
2.00E-05,4.800
2.02E-05,4.800
2.04E-05,4.800
2.06E-05,4.840
2.08E-05,4.840
2.10E-05,4.840
2.12E-05,4.840
2.14E-05,4.760
2.16E-05,4.760
2.18E-05,4.800
2.20E-05,4.800
2.22E-05,4.800
2.24E-05,4.800
2.26E-05,4.800
2.28E-05,4.800
2.30E-05,0.000
2.32E-05,0.000
2.34E-05,-0.040
2.36E-05,0.000
2.38E-05,0.000
2.40E-05,-0.040
2.42E-05,0.000
2.44E-05,0.000
2.46E-05,0.000
2.48E-05,-0.040
2.50E-05,-0.040
2.52E-05,-0.040
2.54E-05,-0.040
2.56E-05,-0.040
2.58E-05,0.040
2.60E-05,-0.040
2.62E-05,0.000
2.64E-05,0.000
2.66E-05,-0.040
2.68E-05,-0.040
2.70E-05,5.480
2.72E-05,4.800
2.74E-05,4.760
2.76E-05,4.800
2.78E-05,4.760
2.80E-05,4.800
2.82E-05,4.800
2.84E-05,4.800
2.86E-05,4.800
2.88E-05,4.760
2.90E-05,4.760
2.92E-05,4.800
2.94E-05,4.800
2.96E-05,4.800
2.98E-05,4.800
3.00E-05,4.760
3.02E-05,4.800
3.04E-05,4.760
3.06E-05,4.800
3.08E-05,4.840
3.10E-05,4.760
3.12E-05,4.760
3.14E-05,1.000
3.16E-05,0.000
3.18E-05,0.040
3.20E-05,-0.040
3.22E-05,-0.040
3.24E-05,-0.040
3.26E-05,0.000
3.28E-05,-0.040
3.30E-05,-0.040
3.32E-05,-0.040
3.34E-05,0.000
3.36E-05,-0.120
3.38E-05,0.040
3.40E-05,-0.040
3.42E-05,0.000
3.44E-05,-0.040
3.46E-05,0.000
3.48E-05,0.000
3.50E-05,0.000
3.52E-05,-0.040
3.54E-05,0.000
3.56E-05,4.680
3.58E-05,4.760
3.60E-05,4.760
3.62E-05,4.800
3.64E-05,4.760
3.66E-05,4.800
3.68E-05,4.760
3.70E-05,4.800
3.72E-05,4.760
3.74E-05,4.800
3.76E-05,4.800
3.78E-05,4.800
3.80E-05,4.840
3.82E-05,4.840
3.84E-05,4.760
3.86E-05,4.760
3.88E-05,4.800
3.90E-05,4.800
3.92E-05,4.800
3.94E-05,4.800
3.96E-05,4.840
3.98E-05,4.760
4.00E-05,-0.040
4.02E-05,0.040
4.04E-05,-0.040
4.06E-05,0.000
4.08E-05,-0.040
4.10E-05,0.000
4.12E-05,0.000
4.14E-05,0.000
4.16E-05,-0.040
4.18E-05,0.040
4.20E-05,0.000
4.22E-05,-0.040
4.24E-05,-0.040
4.26E-05,-0.040
4.28E-05,-0.040
4.30E-05,0.000
4.32E-05,-0.040
4.34E-05,0.000
4.36E-05,0.000
4.38E-05,-0.040
4.40E-05,5.560
4.42E-05,4.840
4.44E-05,4.800
4.46E-05,4.800
4.48E-05,4.800
4.50E-05,4.760
4.52E-05,4.760
4.54E-05,4.800
4.56E-05,4.760
4.58E-05,4.760
4.60E-05,4.800
4.62E-05,4.840
4.64E-05,4.760
4.66E-05,4.800
4.68E-05,4.800
4.70E-05,4.800
4.72E-05,4.760
4.74E-05,4.800
4.76E-05,4.760
4.78E-05,4.760
4.80E-05,4.800
4.82E-05,4.800
4.84E-05,1.040
4.86E-05,-0.040
4.88E-05,0.000
4.90E-05,-0.040
4.92E-05,-0.040
4.94E-05,0.040
4.96E-05,0.000
4.98E-05,-0.040
5.00E-05,-0.040
5.02E-05,0.000
5.04E-05,0.000
5.06E-05,0.000
5.08E-05,-0.040
5.10E-05,-0.040
5.12E-05,0.000
5.14E-05,0.040
5.16E-05,-0.040
5.18E-05,-0.040
5.20E-05,0.000
5.22E-05,0.000
5.24E-05,0.040
5.26E-05,4.680
5.28E-05,4.760
5.30E-05,4.840
5.32E-05,4.800
5.34E-05,4.800
5.36E-05,4.840
5.38E-05,4.840
5.40E-05,4.840
5.42E-05,4.840
5.44E-05,4.760
5.46E-05,4.800
5.48E-05,4.800
5.50E-05,4.840
5.52E-05,4.760
5.54E-05,4.800
5.56E-05,4.800
5.58E-05,4.800
5.60E-05,4.800
5.62E-05,4.800
5.64E-05,4.760
5.66E-05,4.760
5.68E-05,4.800
5.70E-05,-0.040
5.72E-05,0.000
5.74E-05,0.000
5.76E-05,0.000
5.78E-05,-0.040
5.80E-05,-0.080
5.82E-05,-0.040
5.84E-05,-0.040
5.86E-05,-0.040
5.88E-05,0.000
5.90E-05,0.000
5.92E-05,0.000
5.94E-05,0.040
5.96E-05,0.000
5.98E-05,0.040
6.00E-05,-0.040
6.02E-05,-0.040
6.04E-05,0.000
6.06E-05,0.000
6.08E-05,0.040
6.10E-05,5.480
6.12E-05,4.840
6.14E-05,4.760
6.16E-05,4.840
6.18E-05,4.760
6.20E-05,4.800
6.22E-05,4.800
6.24E-05,4.800
6.26E-05,4.800
6.28E-05,4.760
6.30E-05,4.760
6.32E-05,4.800
6.34E-05,4.800
6.36E-05,4.800
6.38E-05,4.800
6.40E-05,4.800
6.42E-05,4.760
6.44E-05,4.800
6.46E-05,4.840
6.48E-05,4.800
6.50E-05,4.760
6.52E-05,4.760
6.54E-05,1.120
6.56E-05,0.000
6.58E-05,-0.040
6.60E-05,-0.040
6.62E-05,-0.040
6.64E-05,0.000
6.66E-05,-0.040
6.68E-05,0.000
6.70E-05,0.000
6.72E-05,0.000
6.74E-05,0.000
6.76E-05,-0.040
6.78E-05,-0.040
6.80E-05,-0.040
6.82E-05,0.000
6.84E-05,0.000
6.86E-05,0.000
6.88E-05,0.000
6.90E-05,-0.040
6.92E-05,-0.040
6.94E-05,0.040
6.96E-05,4.760
6.98E-05,4.760
7.00E-05,4.840
7.02E-05,4.800
7.04E-05,4.800
7.06E-05,4.800
7.08E-05,4.760
7.10E-05,4.840
7.12E-05,4.800
7.14E-05,4.800
7.16E-05,4.800
7.18E-05,4.800
7.20E-05,4.800
7.22E-05,4.800
7.24E-05,4.800
7.26E-05,4.800
7.28E-05,4.800
7.30E-05,4.760
7.32E-05,4.800
7.34E-05,4.800
7.36E-05,4.800
7.38E-05,4.760
7.40E-05,-0.040
7.42E-05,0.040
7.44E-05,-0.040
7.46E-05,0.000
7.48E-05,0.000
7.50E-05,-0.040
7.52E-05,-0.040
7.54E-05,-0.040
7.56E-05,0.000
7.58E-05,-0.040
7.60E-05,-0.040
7.62E-05,0.000
7.64E-05,-0.040
7.66E-05,-0.040
7.68E-05,0.000
7.70E-05,0.000
7.72E-05,0.040
7.74E-05,0.000
7.76E-05,-0.040
7.78E-05,-0.040
7.80E-05,5.480
7.82E-05,4.800
7.84E-05,4.760
7.86E-05,4.800
7.88E-05,4.760
7.90E-05,4.800
7.92E-05,4.800
7.94E-05,4.840
7.96E-05,4.800
7.98E-05,4.800
8.00E-05,4.760
8.02E-05,4.760
8.04E-05,4.800
8.06E-05,4.760
8.08E-05,4.800
8.10E-05,4.800
8.12E-05,4.800
8.14E-05,4.800
8.16E-05,4.800
8.18E-05,4.760
8.20E-05,4.800
8.22E-05,4.760
8.24E-05,1.120
8.26E-05,-0.040
8.28E-05,0.000
8.30E-05,0.000
8.32E-05,0.000
8.34E-05,0.000
8.36E-05,0.000
8.38E-05,-0.040
8.40E-05,-0.040
8.42E-05,0.000
8.44E-05,-0.040
8.46E-05,-0.040
8.48E-05,-0.040
8.50E-05,-0.040
8.52E-05,-0.040
8.54E-05,-0.040
8.56E-05,-0.040
8.58E-05,-0.040
8.60E-05,-0.040
8.62E-05,-0.040
8.64E-05,-0.040
8.66E-05,4.760
8.68E-05,4.760
8.70E-05,4.800
8.72E-05,4.760
8.74E-05,4.800
8.76E-05,4.760
8.78E-05,4.800
8.80E-05,4.800
8.82E-05,4.800
8.84E-05,4.800
8.86E-05,4.800
8.88E-05,4.800
8.90E-05,4.800
8.92E-05,4.760
8.94E-05,4.760
8.96E-05,4.800
8.98E-05,4.760
9.00E-05,4.760
9.02E-05,4.800
9.04E-05,4.840
9.06E-05,4.840
9.08E-05,4.840
9.10E-05,0.000
9.12E-05,0.040
9.14E-05,-0.040
9.16E-05,0.000
9.18E-05,0.000
9.20E-05,-0.040
9.22E-05,0.000
9.24E-05,0.000
9.26E-05,-0.040
9.28E-05,-0.040
9.30E-05,-0.040
9.32E-05,-0.040
9.34E-05,0.000
9.36E-05,-0.040
9.38E-05,-0.040
9.40E-05,0.000
9.42E-05,0.040
9.44E-05,-0.040
9.46E-05,-0.040
9.48E-05,0.000
9.50E-05,5.440
9.52E-05,4.840
9.54E-05,4.800
9.56E-05,4.800
9.58E-05,4.800
9.60E-05,4.800
9.62E-05,4.800
9.64E-05,4.800
9.66E-05,4.760
9.68E-05,4.760
9.70E-05,4.800
9.72E-05,4.760
9.74E-05,4.760
9.76E-05,4.800
9.78E-05,4.800
9.80E-05,4.800
9.82E-05,4.800
9.84E-05,4.800
9.86E-05,4.760
9.88E-05,4.800
9.90E-05,4.760
9.92E-05,4.800
9.94E-05,1.040
9.96E-05,0.000
9.98E-05,-0.040
1.00E-04,0.000
1.00E-04,-0.040
1.00E-04,-0.040
1.01E-04,-0.040
1.01E-04,0.000
1.01E-04,-0.040
1.01E-04,-0.040
1.01E-04,0.000
1.02E-04,-0.040
1.02E-04,0.000
1.02E-04,-0.040
1.02E-04,-0.040
1.02E-04,0.000
1.03E-04,0.000
1.03E-04,-0.040
1.03E-04,-0.040
1.03E-04,0.040
1.03E-04,0.000
1.04E-04,4.760
1.04E-04,4.760
1.04E-04,4.840
1.04E-04,4.760
1.04E-04,4.840
1.05E-04,4.800
1.05E-04,4.800
1.05E-04,4.800
1.05E-04,4.760
1.05E-04,4.760
1.06E-04,4.800
1.06E-04,4.840
1.06E-04,4.760
1.06E-04,4.760
1.06E-04,4.800
1.07E-04,4.760
1.07E-04,4.760
1.07E-04,4.800
1.07E-04,4.840
1.07E-04,4.760
1.08E-04,4.760
1.08E-04,4.800
1.08E-04,-0.080
1.08E-04,0.000
1.08E-04,0.000
1.09E-04,0.000
1.09E-04,0.000
1.09E-04,-0.040
1.09E-04,0.000
1.09E-04,-0.040
1.10E-04,-0.080
1.10E-04,0.000
1.10E-04,0.000
1.10E-04,-0.040
1.10E-04,0.000
1.11E-04,0.000
1.11E-04,-0.040
1.11E-04,0.000
1.11E-04,-0.040
1.11E-04,0.000
1.12E-04,-0.040
1.12E-04,0.040
1.12E-04,5.400
1.12E-04,4.800
1.12E-04,4.800
1.13E-04,4.840
1.13E-04,4.760
1.13E-04,4.800
1.13E-04,4.800
1.13E-04,4.760
1.14E-04,4.760
1.14E-04,4.800
1.14E-04,4.840
1.14E-04,4.760
1.14E-04,4.760
1.15E-04,4.800
1.15E-04,4.840
1.15E-04,4.840
1.15E-04,4.840
1.15E-04,4.760
1.16E-04,4.800
1.16E-04,4.800
1.16E-04,4.800
1.16E-04,4.800
1.16E-04,0.920
1.17E-04,0.000
1.17E-04,0.000
1.17E-04,0.000
1.17E-04,0.000
1.17E-04,-0.040
1.18E-04,-0.040
1.18E-04,0.000
1.18E-04,0.000
1.18E-04,-0.040
1.18E-04,0.000
1.19E-04,-0.040
1.19E-04,-0.040
1.19E-04,-0.040
1.19E-04,-0.040
1.19E-04,0.000
1.20E-04,0.000
1.20E-04,-0.040
1.20E-04,-0.040
1.20E-04,0.000
1.20E-04,0.000
1.21E-04,4.760
1.21E-04,4.760
1.21E-04,4.800
1.21E-04,4.800
1.21E-04,4.800
1.22E-04,4.800
1.22E-04,4.760
1.22E-04,4.800
1.22E-04,4.840
1.22E-04,4.840
1.23E-04,4.760
1.23E-04,4.800
1.23E-04,4.800
1.23E-04,4.800
1.23E-04,4.800
1.24E-04,4.800
1.24E-04,4.760
1.24E-04,4.760
1.24E-04,4.800
1.24E-04,4.800
1.25E-04,4.800
1.25E-04,4.720
1.25E-04,-0.040
1.25E-04,0.040
1.25E-04,-0.040
1.26E-04,-0.040
1.26E-04,0.000
1.26E-04,-0.080
1.26E-04,-0.040
1.26E-04,-0.040
1.27E-04,-0.040
1.27E-04,0.000
1.27E-04,-0.040
1.27E-04,0.000
1.27E-04,0.000
1.28E-04,0.000
1.28E-04,0.040
1.28E-04,0.000
1.28E-04,0.000
1.28E-04,0.000
1.29E-04,-0.040
1.29E-04,-0.040
1.29E-04,5.320
1.29E-04,4.800
1.29E-04,4.800
1.30E-04,4.800
1.30E-04,4.840
1.30E-04,4.760
1.30E-04,4.800
1.30E-04,4.800
1.31E-04,4.840
1.31E-04,4.800
1.31E-04,4.880
1.31E-04,4.800
1.31E-04,4.760
1.32E-04,4.800
1.32E-04,4.800
1.32E-04,4.800
1.32E-04,4.800
1.32E-04,4.800
1.33E-04,4.800
1.33E-04,4.760
1.33E-04,4.760
1.33E-04,4.800
1.33E-04,0.840
1.34E-04,-0.040
1.34E-04,0.040
1.34E-04,-0.040
1.34E-04,0.000
1.34E-04,-0.040
1.35E-04,0.000
1.35E-04,0.000
1.35E-04,-0.040
1.35E-04,-0.040
1.35E-04,0.000
1.36E-04,-0.040
1.36E-04,-0.040
1.36E-04,-0.040
1.36E-04,0.000
1.36E-04,-0.040
1.37E-04,-0.040
1.37E-04,0.040
1.37E-04,0.000
1.37E-04,0.040
1.37E-04,-0.040
1.38E-04,4.800
1.38E-04,4.760
1.38E-04,4.800
1.38E-04,4.800
1.38E-04,4.800
1.39E-04,4.800
1.39E-04,4.760
1.39E-04,4.760
1.39E-04,4.800
1.39E-04,4.800
1.40E-04,4.800
1.40E-04,4.800
1.40E-04,4.800
1.40E-04,4.760
1.40E-04,4.800
1.41E-04,4.840
1.41E-04,4.760
1.41E-04,4.800
1.41E-04,4.800
1.41E-04,4.800
1.42E-04,4.800
1.42E-04,4.760
1.42E-04,-0.040
1.42E-04,0.000
1.42E-04,0.000
1.43E-04,-0.040
1.43E-04,0.000
1.43E-04,-0.040
1.43E-04,-0.040
1.43E-04,-0.040
1.44E-04,0.000
1.44E-04,0.000
1.44E-04,-0.040
1.44E-04,-0.040
1.44E-04,0.000
1.45E-04,-0.040
1.45E-04,0.000
1.45E-04,-0.040
1.45E-04,0.040
1.45E-04,0.040
1.46E-04,0.000
1.46E-04,0.000
1.46E-04,5.240
1.46E-04,4.800
1.46E-04,4.800
1.47E-04,4.800
1.47E-04,4.760
1.47E-04,4.840
1.47E-04,4.800
1.47E-04,4.800
1.48E-04,4.800
1.48E-04,4.800
1.48E-04,4.760
1.48E-04,4.800
1.48E-04,4.800
1.49E-04,4.760
1.49E-04,4.800
1.49E-04,4.800
1.49E-04,4.800
1.49E-04,4.800
1.50E-04,4.800
1.50E-04,4.760
1.50E-04,4.800
1.50E-04,4.800
1.50E-04,0.720
1.51E-04,-0.040
1.51E-04,0.000
1.51E-04,-0.040
1.51E-04,-0.040
1.51E-04,-0.040
1.52E-04,-0.040
1.52E-04,-0.040
1.52E-04,-0.040
1.52E-04,-0.040
1.52E-04,-0.040
1.53E-04,-0.040
1.53E-04,0.000
1.53E-04,-0.040
1.53E-04,0.040
1.53E-04,-0.040
1.54E-04,-0.040
1.54E-04,0.040
1.54E-04,0.000
1.54E-04,0.040
1.54E-04,-0.040
1.55E-04,4.800
1.55E-04,4.760
1.55E-04,4.840
1.55E-04,4.840
1.55E-04,4.840
1.56E-04,4.760
1.56E-04,4.800
1.56E-04,4.800
1.56E-04,4.800
1.56E-04,4.800
1.57E-04,4.800
1.57E-04,4.760
1.57E-04,4.800
1.57E-04,4.800
1.57E-04,4.800
1.58E-04,4.800
1.58E-04,4.800
1.58E-04,4.800
1.58E-04,4.800
1.58E-04,4.760
1.59E-04,4.800
1.59E-04,4.760
1.59E-04,-0.040
1.59E-04,0.040
1.59E-04,-0.040
1.60E-04,-0.040
1.60E-04,-0.040
1.60E-04,-0.040
1.60E-04,0.000
1.60E-04,-0.040
1.61E-04,-0.040
1.61E-04,-0.040
1.61E-04,0.000
1.61E-04,-0.040
1.61E-04,-0.040
1.62E-04,0.000
1.62E-04,-0.040
1.62E-04,-0.040
1.62E-04,0.000
1.62E-04,0.040
1.63E-04,0.000
1.63E-04,0.040
1.63E-04,5.160
1.63E-04,4.800
1.63E-04,4.800
1.64E-04,4.800
1.64E-04,4.800
1.64E-04,4.800
1.64E-04,4.800
1.64E-04,4.800
1.65E-04,4.840
1.65E-04,4.760
1.65E-04,4.840
1.65E-04,4.840
1.65E-04,4.760
1.66E-04,4.800
1.66E-04,4.800
1.66E-04,4.800
1.66E-04,4.840
1.66E-04,4.760
1.67E-04,4.800
1.67E-04,4.720
1.67E-04,4.800
1.67E-04,4.800
1.67E-04,0.560
1.68E-04,0.000
1.68E-04,0.000
1.68E-04,-0.040
1.68E-04,-0.040
1.68E-04,-0.040
1.69E-04,-0.040
1.69E-04,-0.040
1.69E-04,0.000
1.69E-04,-0.040
1.69E-04,-0.040
1.70E-04,0.000
1.70E-04,-0.040
1.70E-04,-0.040
1.70E-04,-0.040
1.70E-04,-0.040
1.71E-04,-0.040
1.71E-04,0.000
1.71E-04,-0.040
1.71E-04,0.000
1.71E-04,-0.040
1.72E-04,4.800
1.72E-04,4.760
1.72E-04,4.800
1.72E-04,4.840
1.72E-04,4.760
1.73E-04,4.760
1.73E-04,4.800
1.73E-04,4.800
1.73E-04,4.800
1.73E-04,4.800
1.74E-04,4.800
1.74E-04,4.800
1.74E-04,4.800
1.74E-04,4.760
1.74E-04,4.800
1.75E-04,4.760
1.75E-04,4.800
1.75E-04,4.760
1.75E-04,4.800
1.75E-04,4.800
1.76E-04,4.800
1.76E-04,4.800
1.76E-04,-0.080
1.76E-04,0.000
1.76E-04,0.000
1.77E-04,0.000
1.77E-04,0.000
1.77E-04,0.000
1.77E-04,0.000
1.77E-04,0.000
1.78E-04,0.000
1.78E-04,0.040
1.78E-04,0.000
1.78E-04,0.000
1.78E-04,0.000
1.79E-04,0.040
1.79E-04,0.040
1.79E-04,-0.040
1.79E-04,0.000
1.79E-04,-0.040
1.80E-04,0.000
1.80E-04,0.040
1.80E-04,5.040
1.80E-04,4.800
1.80E-04,4.800
1.81E-04,4.800
1.81E-04,4.800
1.81E-04,4.840
1.81E-04,4.760
1.81E-04,4.800
1.82E-04,4.760
1.82E-04,4.800
1.82E-04,4.880
1.82E-04,4.840
1.82E-04,4.760
1.83E-04,4.800
1.83E-04,4.800
1.83E-04,4.800
1.83E-04,4.800
1.83E-04,4.840
1.84E-04,4.800
1.84E-04,4.800
1.84E-04,4.760
1.84E-04,4.800
1.84E-04,0.400
1.85E-04,0.040
1.85E-04,-0.040
1.85E-04,-0.040
1.85E-04,-0.040
1.85E-04,-0.040
1.86E-04,-0.040
1.86E-04,0.000
1.86E-04,-0.040
1.86E-04,-0.040
1.86E-04,-0.040
1.87E-04,0.000
1.87E-04,0.040
1.87E-04,-0.040
1.87E-04,-0.040
1.87E-04,0.000
1.88E-04,0.000
1.88E-04,0.040
1.88E-04,-0.040
1.88E-04,-0.040
1.88E-04,0.000
1.89E-04,4.840
1.89E-04,4.800
1.89E-04,4.840
1.89E-04,4.760
1.89E-04,4.800
1.90E-04,4.840
1.90E-04,4.840
1.90E-04,4.840
1.90E-04,4.760
1.90E-04,4.800
1.91E-04,4.800
1.91E-04,4.800
1.91E-04,4.840
1.91E-04,4.800
1.91E-04,4.800
1.92E-04,4.800
1.92E-04,4.800
1.92E-04,4.800
1.92E-04,4.800
1.92E-04,4.800
1.93E-04,4.840
1.93E-04,4.760
1.93E-04,-0.040
1.93E-04,0.000
1.93E-04,-0.080
1.94E-04,-0.040
1.94E-04,0.000
1.94E-04,-0.040
1.94E-04,0.000
1.94E-04,-0.040
1.95E-04,-0.040
1.95E-04,0.000
1.95E-04,-0.040
1.95E-04,-0.040
1.95E-04,-0.040
1.96E-04,0.000
1.96E-04,0.040
1.96E-04,-0.040
1.96E-04,0.000
1.96E-04,0.000
1.97E-04,0.000
1.97E-04,0.000
1.97E-04,4.920
1.97E-04,4.760
1.97E-04,4.800
1.98E-04,4.800
1.98E-04,4.800
1.98E-04,4.800
1.98E-04,4.800
1.98E-04,4.760
1.99E-04,4.800
1.99E-04,4.760
1.99E-04,4.840
1.99E-04,4.800
1.99E-04,4.800
2.00E-04,4.800
2.00E-04,4.760
2.00E-04,4.760
2.00E-04,4.800
2.00E-04,4.800
2.01E-04,4.800
2.01E-04,4.800
2.01E-04,4.800
2.01E-04,4.800
2.01E-04,0.320
2.02E-04,0.000
2.02E-04,0.000
2.02E-04,0.000
2.02E-04,-0.040
2.02E-04,-0.040
2.03E-04,0.000
2.03E-04,-0.040
2.03E-04,-0.040
2.03E-04,-0.040
2.03E-04,0.000
2.04E-04,0.000
2.04E-04,0.040
2.04E-04,-0.040
2.04E-04,0.040
2.04E-04,-0.040
2.05E-04,-0.040
2.05E-04,0.040
2.05E-04,-0.040
2.05E-04,0.000
2.05E-04,-0.040
2.06E-04,4.920
2.06E-04,4.800
2.06E-04,4.800
2.06E-04,4.800
2.06E-04,4.760
2.07E-04,4.800
2.07E-04,4.800
2.07E-04,4.840
2.07E-04,4.800
2.07E-04,4.800
2.08E-04,4.800
2.08E-04,4.760
2.08E-04,4.800
2.08E-04,4.760
2.08E-04,4.800
2.09E-04,4.760
2.09E-04,4.800
2.09E-04,4.880
2.09E-04,4.840
2.09E-04,4.840
2.10E-04,4.840
2.10E-04,4.760
2.10E-04,-0.040
2.10E-04,-0.040
2.10E-04,-0.040
2.11E-04,-0.040
2.11E-04,0.000
2.11E-04,-0.040
2.11E-04,-0.040
2.11E-04,-0.040
2.12E-04,-0.040
2.12E-04,-0.040
2.12E-04,-0.040
2.12E-04,-0.040
2.12E-04,0.000
2.13E-04,0.040
2.13E-04,0.000
2.13E-04,-0.040
2.13E-04,-0.040
2.13E-04,0.000
2.14E-04,0.000
2.14E-04,0.040
2.14E-04,4.840
2.14E-04,4.800
2.14E-04,4.800
2.15E-04,4.800
2.15E-04,4.800
2.15E-04,4.800
2.15E-04,4.800
2.15E-04,4.800
2.16E-04,4.800
2.16E-04,4.760
2.16E-04,4.800
2.16E-04,4.800
2.16E-04,4.840
2.17E-04,4.840
2.17E-04,4.760
2.17E-04,4.760
2.17E-04,4.800
2.17E-04,4.760
2.18E-04,4.800
2.18E-04,4.840
2.18E-04,4.840
2.18E-04,4.760
2.18E-04,0.160
2.19E-04,0.040
2.19E-04,0.000
2.19E-04,-0.040
2.19E-04,-0.040
2.19E-04,-0.040
2.20E-04,-0.080
2.20E-04,-0.040
2.20E-04,0.000
2.20E-04,-0.040
2.20E-04,0.000
2.21E-04,-0.040
2.21E-04,-0.040
2.21E-04,-0.040
2.21E-04,-0.040
2.21E-04,-0.040
2.22E-04,0.040
2.22E-04,-0.040
2.22E-04,-0.040
2.22E-04,-0.040
2.22E-04,0.000
2.23E-04,4.920
2.23E-04,4.760
2.23E-04,4.800
2.23E-04,4.800
2.23E-04,4.760
2.24E-04,4.800
2.24E-04,4.800
2.24E-04,4.840
2.24E-04,4.760
2.24E-04,4.760
2.25E-04,4.800
2.25E-04,4.800
2.25E-04,4.800
2.25E-04,4.800
2.25E-04,4.800
2.26E-04,4.800
2.26E-04,4.760
2.26E-04,4.800
2.26E-04,4.760
2.26E-04,4.800
2.27E-04,4.800
2.27E-04,4.800
2.27E-04,0.000
2.27E-04,-0.040
2.27E-04,-0.040
2.28E-04,0.000
2.28E-04,0.000
2.28E-04,0.000
2.28E-04,-0.080
2.28E-04,-0.040
2.29E-04,0.000
2.29E-04,-0.040
2.29E-04,-0.040
2.29E-04,0.040
2.29E-04,-0.040
2.30E-04,0.040
2.30E-04,-0.040
2.30E-04,0.000
2.30E-04,0.040
2.30E-04,-0.040
2.31E-04,-0.040
2.31E-04,0.000
2.31E-04,4.680
2.31E-04,4.800
2.31E-04,4.840
2.32E-04,4.760
2.32E-04,4.800
2.32E-04,4.800
2.32E-04,4.800
2.32E-04,4.800
2.33E-04,4.800
2.33E-04,4.840
2.33E-04,4.840
2.33E-04,4.760
2.33E-04,4.760
2.34E-04,4.800
2.34E-04,4.760
2.34E-04,4.800
2.34E-04,4.840
2.34E-04,4.840
2.35E-04,4.840
2.35E-04,4.760
2.35E-04,4.800
2.35E-04,4.800
2.35E-04,0.000
2.36E-04,0.040
2.36E-04,0.000
2.36E-04,-0.040
2.36E-04,-0.040
2.36E-04,-0.080
2.37E-04,-0.040
2.37E-04,-0.040
2.37E-04,-0.040
2.37E-04,0.000
2.37E-04,0.000
2.38E-04,-0.040
2.38E-04,-0.040
2.38E-04,0.000
2.38E-04,-0.040
2.38E-04,-0.040
2.39E-04,0.000
2.39E-04,0.040
2.39E-04,-0.040
2.39E-04,0.000
2.39E-04,0.000
2.40E-04,4.960
2.40E-04,4.760
2.40E-04,4.800
2.40E-04,4.760
2.40E-04,4.840
2.41E-04,4.800
2.41E-04,4.880
2.41E-04,4.800
2.41E-04,4.760
2.41E-04,4.840
2.42E-04,4.800
2.42E-04,4.760
2.42E-04,4.800
2.42E-04,4.800
2.42E-04,4.800
2.43E-04,4.800
2.43E-04,4.840
2.43E-04,4.760
2.43E-04,4.800
2.43E-04,4.800
2.44E-04,4.800
2.44E-04,4.760
2.44E-04,-0.040
2.44E-04,0.040
2.44E-04,-0.080
2.45E-04,0.000
2.45E-04,-0.040
2.45E-04,-0.080
2.45E-04,0.000
2.45E-04,-0.040
2.46E-04,-0.040
2.46E-04,-0.040
2.46E-04,0.000
2.46E-04,0.000
2.46E-04,0.000
2.47E-04,-0.040
2.47E-04,0.000
2.47E-04,0.000
2.47E-04,0.000
2.47E-04,0.000
2.48E-04,0.000
2.48E-04,0.000
2.48E-04,4.640
2.48E-04,4.760
2.48E-04,4.800
2.49E-04,4.760
2.49E-04,4.800
2.49E-04,4.880
2.49E-04,4.800
2.49E-04,4.800
2.50E-04,4.800
2.50E-04,4.760
2.50E-04,4.760
2.50E-04,4.800
2.50E-04,4.760
2.51E-04,4.760
2.51E-04,4.800
2.51E-04,4.800
2.51E-04,4.800
2.51E-04,4.800
2.52E-04,4.800
2.52E-04,4.760
2.52E-04,4.800
2.52E-04,4.760
2.52E-04,-0.080
2.53E-04,0.040
2.53E-04,0.040
2.53E-04,-0.040
2.53E-04,-0.040
2.53E-04,-0.040
2.54E-04,-0.040
2.54E-04,-0.040
2.54E-04,-0.040
2.54E-04,-0.040
2.54E-04,0.000
2.55E-04,0.000
2.55E-04,-0.040
2.55E-04,0.000
2.55E-04,0.000
2.55E-04,0.000
2.56E-04,-0.040
2.56E-04,0.000
2.56E-04,-0.040
2.56E-04,-0.040
2.56E-04,-0.040
2.57E-04,4.920
2.57E-04,4.880
2.57E-04,4.800
2.57E-04,4.800
2.57E-04,4.800
2.58E-04,4.800
2.58E-04,4.840
2.58E-04,4.800
2.58E-04,4.760
2.58E-04,4.800
2.59E-04,4.800
2.59E-04,4.800
2.59E-04,4.800
2.59E-04,4.800
2.59E-04,4.800
2.60E-04,4.800
2.60E-04,4.800
2.60E-04,4.800
2.60E-04,4.760
2.60E-04,4.760
2.61E-04,4.800
2.61E-04,4.800
2.61E-04,0.000
2.61E-04,0.000
2.61E-04,-0.040
2.62E-04,-0.040
2.62E-04,-0.040
2.62E-04,-0.040
2.62E-04,0.000
2.62E-04,0.000
2.63E-04,0.000
2.63E-04,0.000
2.63E-04,0.000
2.63E-04,0.000
2.63E-04,0.000
2.64E-04,0.000
2.64E-04,0.000
2.64E-04,-0.040
2.64E-04,-0.040
2.64E-04,-0.040
2.65E-04,-0.040
2.65E-04,0.000
2.65E-04,4.520
2.65E-04,4.800
2.65E-04,4.840
2.66E-04,4.760
2.66E-04,4.760
2.66E-04,4.800
2.66E-04,4.840
2.66E-04,4.800
2.67E-04,4.800
2.67E-04,4.800
2.67E-04,4.840
2.67E-04,4.800
2.67E-04,4.800
2.68E-04,4.800
2.68E-04,4.760
2.68E-04,4.800
2.68E-04,4.760
2.68E-04,4.800
2.69E-04,4.840
2.69E-04,4.760
2.69E-04,4.800
2.69E-04,4.800
2.69E-04,-0.200
2.70E-04,0.040
2.70E-04,0.040
2.70E-04,-0.040
2.70E-04,-0.040
2.70E-04,-0.040
2.71E-04,-0.040
2.71E-04,-0.040
2.71E-04,-0.080
2.71E-04,-0.040
2.71E-04,-0.040
2.72E-04,-0.040
2.72E-04,0.040
2.72E-04,-0.040
2.72E-04,-0.040
2.72E-04,-0.040
2.73E-04,-0.040
2.73E-04,0.040
2.73E-04,0.000
2.73E-04,0.000
2.73E-04,-0.040
2.74E-04,4.960
2.74E-04,4.840
2.74E-04,4.800
2.74E-04,4.800
2.74E-04,4.880
2.75E-04,4.800
2.75E-04,4.840
2.75E-04,4.840
2.75E-04,4.840
2.75E-04,4.800
2.76E-04,4.760
2.76E-04,4.800
2.76E-04,4.760
2.76E-04,4.800
2.76E-04,4.800
2.77E-04,4.760
2.77E-04,4.800
2.77E-04,4.760
2.77E-04,4.760
2.77E-04,4.800
2.78E-04,4.840
2.78E-04,4.760
2.78E-04,-0.040
2.78E-04,-0.040
2.78E-04,-0.040
2.79E-04,0.000
2.79E-04,0.040
2.79E-04,-0.040
2.79E-04,0.000
2.79E-04,0.000
2.80E-04,0.000
2.80E-04,-0.040
2.80E-04,-0.040
2.80E-04,0.000
2.80E-04,-0.040
2.81E-04,-0.040
2.81E-04,-0.040
2.81E-04,-0.040
2.81E-04,0.000
2.81E-04,0.000
2.82E-04,0.000
2.82E-04,-0.040
2.82E-04,4.480
2.82E-04,4.800
2.82E-04,4.840
2.83E-04,4.840
2.83E-04,4.840
2.83E-04,4.840
2.83E-04,4.760
2.83E-04,4.800
2.84E-04,4.800
2.84E-04,4.760
2.84E-04,4.800
2.84E-04,4.760
2.84E-04,4.800
2.85E-04,4.800
2.85E-04,4.760
2.85E-04,4.800
2.85E-04,4.720
2.85E-04,4.800
2.86E-04,4.800
2.86E-04,4.800
2.86E-04,4.880
2.86E-04,4.800
2.86E-04,-0.280
2.87E-04,0.000
2.87E-04,0.000
2.87E-04,0.000
2.87E-04,-0.040
2.87E-04,-0.080
2.88E-04,-0.040
2.88E-04,-0.040
2.88E-04,-0.040
2.88E-04,0.000
2.88E-04,-0.040
2.89E-04,-0.040
2.89E-04,-0.040
2.89E-04,-0.040
2.89E-04,0.000
2.89E-04,-0.040
2.90E-04,-0.040
2.90E-04,-0.040
2.90E-04,0.040
2.90E-04,0.040
2.90E-04,-0.040
2.91E-04,5.000
2.91E-04,4.800
2.91E-04,4.760
2.91E-04,4.800
2.91E-04,4.800
2.92E-04,4.800
2.92E-04,4.800
2.92E-04,4.840
2.92E-04,4.800
2.92E-04,4.800
2.93E-04,4.800
2.93E-04,4.840
2.93E-04,4.760
2.93E-04,4.800
2.93E-04,4.800
2.94E-04,4.800
2.94E-04,4.800
2.94E-04,4.800
2.94E-04,4.800
2.94E-04,4.840
2.95E-04,4.760
2.95E-04,4.760
2.95E-04,-0.080
2.95E-04,0.000
2.95E-04,-0.040
2.96E-04,-0.040
2.96E-04,-0.040
2.96E-04,0.000
2.96E-04,-0.040
2.96E-04,-0.040
2.97E-04,-0.040
2.97E-04,0.000
2.97E-04,-0.040
2.97E-04,-0.040
2.97E-04,0.000
2.98E-04,-0.040
2.98E-04,0.000
2.98E-04,-0.040
2.98E-04,0.040
2.98E-04,0.000
2.99E-04,0.040
2.99E-04,0.000
2.99E-04,4.400
2.99E-04,4.760
2.99E-04,4.800
3.00E-04,4.800
3.00E-04,4.800
3.00E-04,4.800
3.00E-04,4.800
3.00E-04,4.840
3.01E-04,4.800
3.01E-04,4.800
3.01E-04,4.800
3.01E-04,4.800
3.01E-04,4.800
3.02E-04,4.800
3.02E-04,4.760
3.02E-04,4.800
3.02E-04,4.840
3.02E-04,4.840
3.03E-04,4.840
3.03E-04,4.840
3.03E-04,4.840
3.03E-04,4.840
3.03E-04,-0.320
3.04E-04,0.040
3.04E-04,0.000
3.04E-04,-0.040
3.04E-04,-0.040
3.04E-04,-0.040
3.05E-04,0.000
3.05E-04,-0.040
3.05E-04,-0.040
3.05E-04,0.000
3.05E-04,0.000
3.06E-04,0.000
3.06E-04,-0.040
3.06E-04,-0.040
3.06E-04,0.000
3.06E-04,0.040
3.07E-04,0.040
3.07E-04,-0.040
3.07E-04,-0.040
3.07E-04,0.040
3.07E-04,0.000
3.08E-04,4.920
3.08E-04,4.800
3.08E-04,4.800
3.08E-04,4.800
3.08E-04,4.800
3.09E-04,4.760
3.09E-04,4.800
3.09E-04,4.800
3.09E-04,4.800
3.09E-04,4.800
3.10E-04,4.760
3.10E-04,4.760
3.10E-04,4.840
3.10E-04,4.840
3.10E-04,4.840
3.11E-04,4.840
3.11E-04,4.840
3.11E-04,4.840
3.11E-04,4.840
3.11E-04,4.840
3.12E-04,4.840
3.12E-04,4.760
3.12E-04,-0.080
3.12E-04,-0.040
3.12E-04,-0.040
3.13E-04,-0.040
3.13E-04,-0.040
3.13E-04,-0.040
3.13E-04,-0.040
3.13E-04,0.000
3.14E-04,0.000
3.14E-04,0.000
3.14E-04,-0.040
3.14E-04,-0.040
3.14E-04,-0.040
3.15E-04,-0.040
3.15E-04,-0.040
3.15E-04,-0.040
3.15E-04,0.000
3.15E-04,-0.040
3.16E-04,-0.040
3.16E-04,-0.040
3.16E-04,4.280
3.16E-04,4.760
3.16E-04,4.760
3.17E-04,4.760
3.17E-04,4.800
3.17E-04,4.800
3.17E-04,4.800
3.17E-04,4.800
3.18E-04,4.800
3.18E-04,4.840
3.18E-04,4.840
3.18E-04,4.760
3.18E-04,4.760
3.19E-04,4.800
3.19E-04,4.760
3.19E-04,4.800
3.19E-04,4.760
3.19E-04,4.800
3.20E-04,4.800
3.20E-04,4.800
3.20E-04,4.800
3.20E-04,4.800
3.20E-04,-0.400
3.21E-04,0.080
3.21E-04,0.000
3.21E-04,-0.040
3.21E-04,-0.040
3.21E-04,0.000
3.22E-04,0.000
3.22E-04,0.000
3.22E-04,-0.040
3.22E-04,0.000
3.22E-04,-0.040
3.23E-04,0.000
3.23E-04,0.000
3.23E-04,-0.040
3.23E-04,0.000
3.23E-04,0.000
3.24E-04,0.000
3.24E-04,-0.040
3.24E-04,-0.040
3.24E-04,0.000
3.24E-04,0.000
3.25E-04,4.920
3.25E-04,4.840
3.25E-04,4.800
3.25E-04,4.800
3.25E-04,4.800
3.26E-04,4.800
3.26E-04,4.760
3.26E-04,4.800
3.26E-04,4.760
3.26E-04,4.840
3.27E-04,4.760
3.27E-04,4.800
3.27E-04,4.760
3.27E-04,4.800
3.27E-04,4.800
3.28E-04,4.800
3.28E-04,4.800
3.28E-04,4.840
3.28E-04,4.760
3.28E-04,4.800
3.29E-04,4.800
3.29E-04,4.800
3.29E-04,-0.120
3.29E-04,0.000
3.29E-04,-0.040
3.30E-04,-0.040
3.30E-04,-0.040
3.30E-04,0.000
3.30E-04,0.000
3.30E-04,0.000
3.31E-04,-0.040
3.31E-04,-0.040
3.31E-04,-0.040
3.31E-04,-0.040
3.31E-04,-0.040
3.32E-04,-0.040
3.32E-04,-0.040
3.32E-04,-0.040
3.32E-04,0.040
3.32E-04,-0.040
3.33E-04,0.040
3.33E-04,-0.040
3.33E-04,4.200
3.33E-04,4.680
3.33E-04,4.840
3.34E-04,4.880
3.34E-04,4.840
3.34E-04,4.840
3.34E-04,4.760
3.34E-04,4.800
3.35E-04,4.800
3.35E-04,4.760
3.35E-04,4.840
3.35E-04,4.800
3.35E-04,4.800
3.36E-04,4.800
3.36E-04,4.760
3.36E-04,4.800
3.36E-04,4.800
3.36E-04,4.800
3.37E-04,4.800
3.37E-04,4.800
3.37E-04,4.800
3.37E-04,4.800
3.37E-04,-0.400
3.38E-04,0.000
3.38E-04,0.000
3.38E-04,-0.040
3.38E-04,0.000
3.38E-04,0.000
3.39E-04,0.000
3.39E-04,0.000
3.39E-04,-0.040
3.39E-04,0.000
3.39E-04,0.000
3.40E-04,-0.040
3.40E-04,-0.040
3.40E-04,-0.040
3.40E-04,0.000
3.40E-04,-0.040
3.41E-04,-0.040
3.41E-04,0.000
3.41E-04,-0.040
3.41E-04,0.000
3.41E-04,-0.040
3.42E-04,4.920
3.42E-04,4.840
3.42E-04,4.800
3.42E-04,4.800
3.42E-04,4.800
3.43E-04,4.800
3.43E-04,4.880
3.43E-04,4.760
3.43E-04,4.800
3.43E-04,4.840
3.44E-04,4.800
3.44E-04,4.800
3.44E-04,4.800
3.44E-04,4.840
3.44E-04,4.760
3.45E-04,4.760
3.45E-04,4.800
3.45E-04,4.800
3.45E-04,4.720
3.45E-04,4.800
3.46E-04,4.800
3.46E-04,4.800
3.46E-04,-0.080
3.46E-04,-0.040
3.46E-04,-0.040
3.47E-04,-0.040
3.47E-04,-0.040
3.47E-04,-0.040
3.47E-04,-0.040
3.47E-04,0.000
3.48E-04,0.000
3.48E-04,-0.040
3.48E-04,-0.040
3.48E-04,0.000
3.48E-04,-0.040
3.49E-04,-0.040
3.49E-04,-0.040
3.49E-04,0.000
3.49E-04,0.000
3.49E-04,-0.040
3.50E-04,-0.040
3.50E-04,-0.040
3.50E-04,4.120
3.50E-04,4.760
3.50E-04,4.800
3.51E-04,4.760
3.51E-04,4.800
3.51E-04,4.800
3.51E-04,4.800
3.51E-04,4.800
3.52E-04,4.840
3.52E-04,4.800
3.52E-04,4.800
3.52E-04,4.760
3.52E-04,4.800
3.53E-04,4.800
3.53E-04,4.800
3.53E-04,4.800
3.53E-04,4.800
3.53E-04,4.800
3.54E-04,4.760
3.54E-04,4.800
3.54E-04,4.760
3.54E-04,4.760
3.54E-04,-0.440
3.55E-04,0.080
3.55E-04,0.000
3.55E-04,-0.080
3.55E-04,-0.040
3.55E-04,-0.040
3.56E-04,0.000
3.56E-04,-0.080
3.56E-04,-0.040
3.56E-04,-0.040
3.56E-04,-0.040
3.57E-04,-0.040
3.57E-04,-0.040
3.57E-04,-0.040
3.57E-04,0.000
3.57E-04,-0.040
3.58E-04,0.040
3.58E-04,0.040
3.58E-04,0.000
3.58E-04,0.040
3.58E-04,0.000
3.59E-04,4.920
3.59E-04,4.840
3.59E-04,4.800
3.59E-04,4.800
3.59E-04,4.800
3.60E-04,4.840
3.60E-04,4.840
3.60E-04,4.840
3.60E-04,4.840
3.60E-04,4.760
3.61E-04,4.760
3.61E-04,4.800
3.61E-04,4.800
3.61E-04,4.800
3.61E-04,4.800
3.62E-04,4.800
3.62E-04,4.840
3.62E-04,4.840
3.62E-04,4.840
3.62E-04,4.760
3.63E-04,4.760
3.63E-04,4.800
3.63E-04,-0.080
3.63E-04,0.000
3.63E-04,0.000
3.64E-04,-0.040
3.64E-04,-0.040
3.64E-04,-0.040
3.64E-04,-0.040
3.64E-04,-0.040
3.65E-04,0.000
3.65E-04,0.000
3.65E-04,0.000
3.65E-04,0.000
3.65E-04,0.000
3.66E-04,0.000
3.66E-04,0.000
3.66E-04,0.000
3.66E-04,0.000
3.66E-04,-0.040
3.67E-04,-0.040
3.67E-04,-0.040
3.67E-04,4.120
3.67E-04,4.760
3.67E-04,4.800
3.68E-04,4.800
3.68E-04,4.800
3.68E-04,4.760
3.68E-04,4.800
3.68E-04,4.800
3.69E-04,4.800
3.69E-04,4.800
3.69E-04,4.800
3.69E-04,4.800
3.69E-04,4.800
3.70E-04,4.840
3.70E-04,4.800
3.70E-04,4.800
3.70E-04,4.800
3.70E-04,4.800
3.71E-04,4.800
3.71E-04,4.800
3.71E-04,4.760
3.71E-04,4.760
3.71E-04,-0.440
3.72E-04,0.080
3.72E-04,0.000
3.72E-04,0.000
3.72E-04,0.000
3.72E-04,-0.040
3.73E-04,-0.040
3.73E-04,0.000
3.73E-04,-0.040
3.73E-04,0.000
3.73E-04,-0.040
3.74E-04,-0.040
3.74E-04,-0.040
3.74E-04,-0.040
3.74E-04,0.040
3.74E-04,0.000
3.75E-04,0.040
3.75E-04,-0.040
3.75E-04,0.000
3.75E-04,0.000
3.75E-04,-0.040
3.76E-04,4.960
3.76E-04,4.800
3.76E-04,4.800
3.76E-04,4.800
3.76E-04,4.800
3.77E-04,4.840
3.77E-04,4.800
3.77E-04,4.800
3.77E-04,4.800
3.77E-04,4.800
3.78E-04,4.800
3.78E-04,4.800
3.78E-04,4.800
3.78E-04,4.760
3.78E-04,4.760
3.79E-04,4.800
3.79E-04,4.800
3.79E-04,4.800
3.79E-04,4.800
3.79E-04,4.760
3.80E-04,4.800
3.80E-04,4.760
3.80E-04,-0.080
3.80E-04,-0.040
3.80E-04,-0.040
3.81E-04,-0.040
3.81E-04,-0.040
3.81E-04,0.000
3.81E-04,-0.040
3.81E-04,-0.040
3.82E-04,-0.040
3.82E-04,-0.040
3.82E-04,0.000
3.82E-04,-0.040
3.82E-04,0.000
3.83E-04,0.000
3.83E-04,0.000
3.83E-04,-0.040
3.83E-04,0.000
3.83E-04,0.000
3.84E-04,0.040
3.84E-04,-0.040
3.84E-04,4.080
3.84E-04,4.680
3.84E-04,4.840
3.85E-04,4.840
3.85E-04,4.840
3.85E-04,4.840
3.85E-04,4.840
3.85E-04,4.840
3.86E-04,4.840
3.86E-04,4.840
3.86E-04,4.760
3.86E-04,4.760
3.86E-04,4.800
3.87E-04,4.760
3.87E-04,4.800
3.87E-04,4.800
3.87E-04,4.800
3.87E-04,4.800
3.88E-04,4.800
3.88E-04,4.800
3.88E-04,4.800
3.88E-04,4.800
3.88E-04,-0.400
3.89E-04,0.080
3.89E-04,-0.040
3.89E-04,-0.040
3.89E-04,-0.040
3.89E-04,-0.040
3.90E-04,-0.040
3.90E-04,-0.040
3.90E-04,-0.040
3.90E-04,-0.040
3.90E-04,-0.040
3.91E-04,-0.040
3.91E-04,-0.040
3.91E-04,-0.040
3.91E-04,-0.040
3.91E-04,-0.040
3.92E-04,-0.040
3.92E-04,0.000
3.92E-04,0.000
3.92E-04,0.040
3.92E-04,-0.040
3.93E-04,4.920
3.93E-04,4.840
3.93E-04,4.800
3.93E-04,4.800
3.93E-04,4.840
3.94E-04,4.840
3.94E-04,4.840
3.94E-04,4.840
3.94E-04,4.840
3.94E-04,4.760
3.95E-04,4.760
3.95E-04,4.800
3.95E-04,4.760
3.95E-04,4.800
3.95E-04,4.800
3.96E-04,4.800
3.96E-04,4.760
3.96E-04,4.800
3.96E-04,4.760
3.96E-04,4.800
3.97E-04,4.760
3.97E-04,4.800
3.97E-04,-0.120
3.97E-04,-0.080
3.97E-04,-0.040
3.98E-04,0.000
3.98E-04,0.000
3.98E-04,0.000
3.98E-04,-0.040
3.98E-04,-0.040
3.99E-04,0.000
3.99E-04,0.000
3.99E-04,-0.040
3.99E-04,-0.040
3.99E-04,-0.040
4.00E-04,0.000
4.00E-04,0.000
4.00E-04,-0.040
4.00E-04,-0.040
4.00E-04,-0.040
4.01E-04,-0.040
4.01E-04,-0.040
4.01E-04,4.040
4.01E-04,4.760
4.01E-04,4.800
4.02E-04,4.800
4.02E-04,4.800
4.02E-04,4.800
4.02E-04,4.800
4.02E-04,4.800
4.03E-04,4.800
4.03E-04,4.800
4.03E-04,4.800
4.03E-04,4.800
4.03E-04,4.840
4.04E-04,4.800
4.04E-04,4.800
4.04E-04,4.800
4.04E-04,4.800
4.04E-04,4.760
4.05E-04,4.760
4.05E-04,4.760
4.05E-04,4.800
4.05E-04,4.760
4.05E-04,-0.360
4.06E-04,0.080
4.06E-04,0.040
4.06E-04,-0.040
4.06E-04,-0.040
4.06E-04,-0.040
4.07E-04,-0.040
4.07E-04,-0.040
4.07E-04,-0.040
4.07E-04,-0.040
4.07E-04,0.000
4.08E-04,-0.040
4.08E-04,-0.040
4.08E-04,0.000
4.08E-04,-0.040
4.08E-04,0.000
4.09E-04,0.040
4.09E-04,-0.040
4.09E-04,0.000
4.09E-04,0.040
4.09E-04,-0.040
4.10E-04,4.920
4.10E-04,4.840
4.10E-04,4.760
4.10E-04,4.760
4.10E-04,4.800
4.11E-04,4.760
4.11E-04,4.800
4.11E-04,4.800
4.11E-04,4.800
4.11E-04,4.800
4.12E-04,4.800
4.12E-04,4.800
4.12E-04,4.800
4.12E-04,4.800
4.12E-04,4.800
4.13E-04,4.800
4.13E-04,4.800
4.13E-04,4.800
4.13E-04,4.800
4.13E-04,4.840
4.14E-04,4.800
4.14E-04,4.840
4.14E-04,-0.080
4.14E-04,-0.080
4.14E-04,-0.040
4.15E-04,0.000
4.15E-04,0.000
4.15E-04,0.000
4.15E-04,0.000
4.15E-04,-0.040
4.16E-04,-0.040
4.16E-04,0.000
4.16E-04,0.000
4.16E-04,0.000
4.16E-04,0.000
4.17E-04,-0.040
4.17E-04,-0.040
4.17E-04,0.000
4.17E-04,-0.040
4.17E-04,0.000
4.18E-04,0.000
4.18E-04,-0.040
4.18E-04,4.040
4.18E-04,4.760
4.18E-04,4.760
4.19E-04,4.800
4.19E-04,4.760
4.19E-04,4.760
4.19E-04,4.800
4.19E-04,4.800
4.20E-04,4.800
4.20E-04,4.800
4.20E-04,4.800
4.20E-04,4.800
4.20E-04,4.800
4.21E-04,4.800
4.21E-04,4.800
4.21E-04,4.800
4.21E-04,4.800
4.21E-04,4.800
4.22E-04,4.800
4.22E-04,4.800
4.22E-04,4.800
4.22E-04,4.800
4.22E-04,-0.320
4.23E-04,0.080
4.23E-04,0.000
4.23E-04,0.000
4.23E-04,0.000
4.23E-04,0.000
4.24E-04,-0.040
4.24E-04,-0.040
4.24E-04,-0.040
4.24E-04,-0.040
4.24E-04,0.000
4.25E-04,0.000
4.25E-04,0.000
4.25E-04,0.000
4.25E-04,0.000
4.25E-04,-0.040
4.26E-04,0.000
4.26E-04,-0.080
4.26E-04,-0.040
4.26E-04,0.000
4.26E-04,0.000
4.27E-04,4.840
4.27E-04,4.840
4.27E-04,4.800
4.27E-04,4.800
4.27E-04,4.760
4.28E-04,4.800
4.28E-04,4.800
4.28E-04,4.800
4.28E-04,4.840
4.28E-04,4.760
4.29E-04,4.800
4.29E-04,4.800
4.29E-04,4.800
4.29E-04,4.800
4.29E-04,4.760
4.30E-04,4.800
4.30E-04,4.800
4.30E-04,4.800
4.30E-04,4.800
4.30E-04,4.760
4.31E-04,4.760
4.31E-04,4.800
4.31E-04,-0.120
4.31E-04,-0.120
4.31E-04,0.000
4.32E-04,0.000
4.32E-04,-0.040
4.32E-04,0.000
4.32E-04,0.000
4.32E-04,-0.040
4.33E-04,-0.040
4.33E-04,-0.040
4.33E-04,-0.040
4.33E-04,0.040
4.33E-04,0.000
4.34E-04,0.040
4.34E-04,-0.040
4.34E-04,0.000
4.34E-04,0.040
4.34E-04,-0.040
4.35E-04,0.000
4.35E-04,-0.040
4.35E-04,4.040
4.35E-04,4.720
4.35E-04,4.800
4.36E-04,4.800
4.36E-04,4.800
4.36E-04,4.840
4.36E-04,4.840
4.36E-04,4.880
4.37E-04,4.840
4.37E-04,4.760
4.37E-04,4.800
4.37E-04,4.800
4.37E-04,4.800
4.38E-04,4.800
4.38E-04,4.840
4.38E-04,4.840
4.38E-04,4.760
4.38E-04,4.760
4.39E-04,4.800
4.39E-04,4.760
4.39E-04,4.760
4.39E-04,4.800
4.39E-04,-0.160
4.40E-04,0.080
4.40E-04,-0.040
4.40E-04,-0.040
4.40E-04,-0.040
4.40E-04,-0.040
4.41E-04,-0.040
4.41E-04,-0.040
4.41E-04,0.000
4.41E-04,-0.040
4.41E-04,0.000
4.42E-04,0.000
4.42E-04,0.000
4.42E-04,-0.040
4.42E-04,-0.040
4.42E-04,0.000
4.43E-04,0.040
4.43E-04,-0.040
4.43E-04,0.040
4.43E-04,0.000
4.43E-04,0.000
4.44E-04,4.880
4.44E-04,4.840
4.44E-04,4.840
4.44E-04,4.840
4.44E-04,4.880
4.45E-04,4.840
4.45E-04,4.840
4.45E-04,4.760
4.45E-04,4.800
4.45E-04,4.800
4.46E-04,4.760
4.46E-04,4.760
4.46E-04,4.800
4.46E-04,4.760
4.46E-04,4.800
4.47E-04,4.840
4.47E-04,4.760
4.47E-04,4.800
4.47E-04,4.800
4.47E-04,4.840
4.48E-04,4.760
4.48E-04,4.800
4.48E-04,-0.120
4.48E-04,-0.040
4.48E-04,-0.040
4.49E-04,0.000
4.49E-04,0.000
4.49E-04,-0.040
4.49E-04,-0.040
4.49E-04,-0.040
4.50E-04,-0.040
4.50E-04,0.000
4.50E-04,0.000
4.50E-04,0.000
4.50E-04,0.040
4.51E-04,0.040
4.51E-04,0.000
4.51E-04,0.000
4.51E-04,-0.040
4.51E-04,-0.040
4.52E-04,0.040
4.52E-04,0.000
4.52E-04,4.000
4.52E-04,4.760
4.52E-04,4.800
4.53E-04,4.800
4.53E-04,4.840
4.53E-04,4.800
4.53E-04,4.880
4.53E-04,4.800
4.54E-04,4.800
4.54E-04,4.800
4.54E-04,4.800
4.54E-04,4.840
4.54E-04,4.840
4.55E-04,4.760
4.55E-04,4.760
4.55E-04,4.800
4.55E-04,4.760
4.55E-04,4.800
4.56E-04,4.840
4.56E-04,4.880
4.56E-04,4.760
4.56E-04,4.760
4.56E-04,-0.160
4.57E-04,0.080
4.57E-04,0.040
4.57E-04,-0.040
4.57E-04,0.000
4.57E-04,-0.040
4.58E-04,-0.040
4.58E-04,0.000
4.58E-04,-0.040
4.58E-04,0.000
4.58E-04,0.000
4.59E-04,-0.040
4.59E-04,-0.040
4.59E-04,0.000
4.59E-04,0.000
4.59E-04,0.000
4.60E-04,0.040
4.60E-04,0.000
4.60E-04,-0.040
4.60E-04,-0.040
4.60E-04,-0.040
4.61E-04,4.840
4.61E-04,4.800
4.61E-04,4.760
4.61E-04,4.800
4.61E-04,4.800
4.62E-04,4.800
4.62E-04,4.840
4.62E-04,4.800
4.62E-04,4.840
4.62E-04,4.800
4.63E-04,4.800
4.63E-04,4.840
4.63E-04,4.800
4.63E-04,4.800
4.63E-04,4.760
4.64E-04,4.800
4.64E-04,4.800
4.64E-04,4.800
4.64E-04,4.800
4.64E-04,4.800
4.65E-04,4.800
4.65E-04,4.800
4.65E-04,-0.080
4.65E-04,-0.080
4.65E-04,0.000
4.66E-04,0.000
4.66E-04,0.000
4.66E-04,-0.040
4.66E-04,0.000
4.66E-04,-0.040
4.67E-04,-0.040
4.67E-04,-0.040
4.67E-04,0.000
4.67E-04,0.000
4.67E-04,0.000
4.68E-04,0.040
4.68E-04,-0.080
4.68E-04,0.040
4.68E-04,-0.040
4.68E-04,-0.040
4.69E-04,0.040
4.69E-04,0.000
4.69E-04,4.040
4.69E-04,4.720
4.69E-04,4.800
4.70E-04,4.760
4.70E-04,4.840
4.70E-04,4.800
4.70E-04,4.800
4.70E-04,4.800
4.71E-04,4.800
4.71E-04,4.840
4.71E-04,4.800
4.71E-04,4.800
4.71E-04,4.760
4.72E-04,4.800
4.72E-04,4.880
4.72E-04,4.800
4.72E-04,4.800
4.72E-04,4.800
4.73E-04,4.800
4.73E-04,4.760
4.73E-04,4.800
4.73E-04,4.800
4.73E-04,-0.040
4.74E-04,0.040
4.74E-04,0.000
4.74E-04,-0.040
4.74E-04,-0.040
4.74E-04,-0.040
4.75E-04,-0.040
4.75E-04,0.000
4.75E-04,-0.040
4.75E-04,-0.040
4.75E-04,0.000
4.76E-04,0.000
4.76E-04,0.000
4.76E-04,0.000
4.76E-04,-0.040
4.76E-04,0.000
4.77E-04,-0.040
4.77E-04,-0.040
4.77E-04,0.040
4.77E-04,-0.040
4.77E-04,0.040
4.78E-04,4.840
4.78E-04,4.920
4.78E-04,4.800
4.78E-04,4.840
4.78E-04,4.840
4.79E-04,4.760
4.79E-04,4.800
4.79E-04,4.800
4.79E-04,4.840
4.79E-04,4.800
4.80E-04,4.800
4.80E-04,4.800
4.80E-04,4.760
4.80E-04,4.800
4.80E-04,4.800
4.81E-04,4.800
4.81E-04,4.760
4.81E-04,4.760
4.81E-04,4.800
4.81E-04,4.840
4.82E-04,4.760
4.82E-04,4.800
4.82E-04,-0.080
4.82E-04,-0.080
4.82E-04,-0.040
4.83E-04,0.000
4.83E-04,0.000
4.83E-04,0.000
4.83E-04,-0.040
4.83E-04,-0.040
4.84E-04,-0.040
4.84E-04,-0.040
4.84E-04,0.040
4.84E-04,-0.040
4.84E-04,-0.040
4.85E-04,0.040
4.85E-04,-0.040
4.85E-04,0.000
4.85E-04,-0.040
4.85E-04,0.000
4.86E-04,0.000
4.86E-04,-0.040
4.86E-04,4.080
4.86E-04,4.760
4.86E-04,4.800
4.87E-04,4.800
4.87E-04,4.840
4.87E-04,4.800
4.87E-04,4.880
4.87E-04,4.800
4.88E-04,4.840
4.88E-04,4.880
4.88E-04,4.840
4.88E-04,4.840
4.88E-04,4.760
4.89E-04,4.760
4.89E-04,4.800
4.89E-04,4.840
4.89E-04,4.760
4.89E-04,4.800
4.90E-04,4.800
4.90E-04,4.800
4.90E-04,4.760
4.90E-04,4.800
4.90E-04,0.080
4.91E-04,0.080
4.91E-04,-0.040
4.91E-04,-0.040
4.91E-04,-0.040
4.91E-04,0.000
4.92E-04,0.000
4.92E-04,-0.040
4.92E-04,-0.040
4.92E-04,-0.120
4.92E-04,0.000
4.93E-04,0.040
4.93E-04,-0.040
4.93E-04,-0.040
4.93E-04,-0.040
4.93E-04,0.000
4.94E-04,0.040
4.94E-04,0.040
4.94E-04,0.000
4.94E-04,0.000
4.94E-04,0.000
4.95E-04,4.840
4.95E-04,4.880
4.95E-04,4.760
4.95E-04,4.760
4.95E-04,4.800
4.96E-04,4.760
4.96E-04,4.800
4.96E-04,4.800
4.96E-04,4.880
4.96E-04,4.840
4.97E-04,4.760
4.97E-04,4.800
4.97E-04,4.800
4.97E-04,4.800
4.97E-04,4.800
4.98E-04,4.760
4.98E-04,4.800
4.98E-04,4.800
4.98E-04,4.800
4.98E-04,4.800
4.99E-04,4.800
4.99E-04,4.800
4.99E-04,-0.040
4.99E-04,-0.040
4.99E-04,-0.040
5.00E-04,-0.040
5.00E-04,-0.040
5.00E-04,0.000
5.00E-04,-0.040
5.00E-04,-0.040
5.01E-04,-0.040
5.01E-04,-0.040
5.01E-04,0.040
5.01E-04,0.000
5.01E-04,0.000
5.02E-04,0.000
5.02E-04,0.000
5.02E-04,-0.040
5.02E-04,-0.040
5.02E-04,0.000
5.03E-04,0.000
5.03E-04,0.000
5.03E-04,4.120
5.03E-04,4.720
5.03E-04,4.800
5.04E-04,4.800
5.04E-04,4.800
5.04E-04,4.800
5.04E-04,4.840
5.04E-04,4.800
5.05E-04,4.800
5.05E-04,4.880
5.05E-04,4.800
5.05E-04,4.760
5.05E-04,4.800
5.06E-04,4.760
5.06E-04,4.800
5.06E-04,4.880
5.06E-04,4.760
5.06E-04,4.760
5.07E-04,4.800
5.07E-04,4.760
5.07E-04,4.800
5.07E-04,4.800
5.07E-04,0.160
5.08E-04,0.040
5.08E-04,-0.040
5.08E-04,-0.040
5.08E-04,-0.040
5.08E-04,-0.040
5.09E-04,-0.040
5.09E-04,0.000
5.09E-04,0.000
5.09E-04,-0.040
5.09E-04,-0.040
5.10E-04,0.000
5.10E-04,0.000
5.10E-04,-0.040
5.10E-04,0.000
5.10E-04,-0.040
5.11E-04,0.000
5.11E-04,-0.040
5.11E-04,-0.040
5.11E-04,-0.040
5.11E-04,-0.040
5.12E-04,4.840
5.12E-04,4.880
5.12E-04,4.840
5.12E-04,4.760
5.12E-04,4.800
5.13E-04,4.840
5.13E-04,4.800
5.13E-04,4.800
5.13E-04,4.800
5.13E-04,4.800
5.14E-04,4.760
5.14E-04,4.840
5.14E-04,4.800
5.14E-04,4.800
5.14E-04,4.800
5.15E-04,4.840
5.15E-04,4.760
5.15E-04,4.800
5.15E-04,4.800
5.15E-04,4.800
5.16E-04,4.760
5.16E-04,4.800
5.16E-04,-0.080
5.16E-04,-0.080
5.16E-04,0.000
5.17E-04,0.000
5.17E-04,-0.120
5.17E-04,0.000
5.17E-04,-0.040
5.17E-04,-0.040
5.18E-04,-0.040
5.18E-04,0.000
5.18E-04,0.000
5.18E-04,0.000
5.18E-04,0.000
5.19E-04,0.000
5.19E-04,0.000
5.19E-04,0.040
5.19E-04,0.000
5.19E-04,-0.040
5.20E-04,0.000
5.20E-04,0.000
5.20E-04,4.200
5.20E-04,4.760
5.20E-04,4.840
5.21E-04,4.760
5.21E-04,4.800
5.21E-04,4.800
5.21E-04,4.840
5.21E-04,4.800
5.22E-04,4.800
5.22E-04,4.760
5.22E-04,4.800
5.22E-04,4.840
5.22E-04,4.800
5.23E-04,4.800
5.23E-04,4.800
5.23E-04,4.760
5.23E-04,4.840
5.23E-04,4.800
5.24E-04,4.800
5.24E-04,4.800
5.24E-04,4.800
5.24E-04,4.800
5.24E-04,0.280
5.25E-04,0.080
5.25E-04,-0.040
5.25E-04,-0.040
5.25E-04,-0.040
5.25E-04,-0.040
5.26E-04,-0.040
5.26E-04,-0.080
5.26E-04,-0.040
5.26E-04,-0.040
5.26E-04,-0.040
5.27E-04,0.000
5.27E-04,-0.040
5.27E-04,-0.040
5.27E-04,0.000
5.27E-04,0.000
5.28E-04,0.000
5.28E-04,-0.040
5.28E-04,0.000
5.28E-04,0.000
5.28E-04,-0.040
5.29E-04,4.760
5.29E-04,4.800
5.29E-04,4.800
5.29E-04,4.800
5.29E-04,4.800
5.30E-04,4.800
5.30E-04,4.840
5.30E-04,4.800
5.30E-04,4.800
5.30E-04,4.800
5.31E-04,4.800
5.31E-04,4.800
5.31E-04,4.800
5.31E-04,4.760
5.31E-04,4.760
5.32E-04,4.800
5.32E-04,4.760
5.32E-04,4.800
5.32E-04,4.800
5.32E-04,4.800
5.33E-04,4.840
5.33E-04,4.840
5.33E-04,-0.080
5.33E-04,-0.080
5.33E-04,-0.040
5.34E-04,-0.040
5.34E-04,-0.080
5.34E-04,-0.040
5.34E-04,-0.040
5.34E-04,-0.040
5.35E-04,-0.040
5.35E-04,-0.040
5.35E-04,-0.040
5.35E-04,0.000
5.35E-04,-0.040
5.36E-04,0.000
5.36E-04,-0.040
5.36E-04,-0.040
5.36E-04,-0.040
5.36E-04,0.000
5.37E-04,0.000
5.37E-04,-0.040
5.37E-04,4.240
5.37E-04,4.760
5.37E-04,4.800
5.38E-04,4.800
5.38E-04,4.880
5.38E-04,4.800
5.38E-04,4.760
5.38E-04,4.800
5.39E-04,4.800
5.39E-04,4.800
5.39E-04,4.800
5.39E-04,4.840
5.39E-04,4.760
5.40E-04,4.760
5.40E-04,4.800
5.40E-04,4.760
5.40E-04,4.800
5.40E-04,4.800
5.41E-04,4.760
5.41E-04,4.840
5.41E-04,4.840
5.41E-04,4.840
5.41E-04,0.320
5.42E-04,0.080
5.42E-04,-0.040
5.42E-04,-0.040
5.42E-04,0.000
5.42E-04,0.040
5.43E-04,-0.040
5.43E-04,-0.040
5.43E-04,-0.040
5.43E-04,-0.040
5.43E-04,0.000
5.44E-04,0.000
5.44E-04,-0.040
5.44E-04,-0.040
5.44E-04,-0.040
5.44E-04,0.000
5.45E-04,-0.040
5.45E-04,-0.040
5.45E-04,-0.040
5.45E-04,-0.040
5.45E-04,-0.040
5.46E-04,0.000
5.46E-04,0.000
5.46E-04,0.040
5.46E-04,-0.040
5.46E-04,-0.040
5.47E-04,-0.040
5.47E-04,-0.040
5.47E-04,-0.040
5.47E-04,0.000
5.47E-04,-0.040
5.48E-04,0.000
5.48E-04,0.000
5.48E-04,-0.040
5.48E-04,0.000
5.48E-04,0.040
5.49E-04,-0.040
5.49E-04,0.000
5.49E-04,0.000
5.49E-04,-0.040
5.49E-04,0.000
5.50E-04,0.040
5.50E-04,-0.040
5.50E-04,-0.040
5.50E-04,-0.040
5.50E-04,-0.040
5.51E-04,0.040
5.51E-04,-0.040
5.51E-04,0.000
5.51E-04,0.000
5.51E-04,0.040
5.52E-04,0.000
5.52E-04,4.760
5.52E-04,4.760
5.52E-04,4.800
5.52E-04,4.840
5.53E-04,4.840
5.53E-04,4.840
5.53E-04,4.760
5.53E-04,4.840
5.53E-04,4.800
5.54E-04,4.800
5.54E-04,4.800
5.54E-04,4.800
5.54E-04,4.800
5.54E-04,4.800
5.55E-04,4.800
5.55E-04,4.800
5.55E-04,4.760
5.55E-04,4.800
5.55E-04,4.840
5.56E-04,4.760
5.56E-04,4.760
5.56E-04,4.800
5.56E-04,0.240
5.56E-04,0.080
5.57E-04,0.000
5.57E-04,-0.040
5.57E-04,-0.040
5.57E-04,-0.040
5.57E-04,0.000
5.58E-04,0.000
5.58E-04,-0.040
5.58E-04,-0.040
5.58E-04,0.000
5.58E-04,0.040
5.59E-04,-0.040
5.59E-04,-0.040
5.59E-04,0.000
5.59E-04,-0.040
5.59E-04,-0.040
5.60E-04,0.000
5.60E-04,0.000
5.60E-04,-0.040
5.60E-04,5.200
5.60E-04,4.840
5.61E-04,4.800
5.61E-04,4.800
5.61E-04,4.800
5.61E-04,4.800
5.61E-04,4.800
5.62E-04,4.800
5.62E-04,4.800
5.62E-04,4.800
5.62E-04,4.800
5.62E-04,4.760
5.63E-04,4.800
5.63E-04,4.760
5.63E-04,4.800
5.63E-04,4.800
5.63E-04,4.800
5.64E-04,4.800
5.64E-04,4.800
5.64E-04,4.800
5.64E-04,4.800
5.64E-04,4.800
5.65E-04,-0.360
5.65E-04,-0.080
5.65E-04,-0.040
5.65E-04,-0.040
5.65E-04,-0.040
5.66E-04,-0.040
5.66E-04,-0.040
5.66E-04,0.000
5.66E-04,0.000
5.66E-04,0.000
5.67E-04,0.000
5.67E-04,-0.040
5.67E-04,-0.040
5.67E-04,-0.040
5.67E-04,0.000
5.68E-04,-0.040
5.68E-04,-0.040
5.68E-04,0.000
5.68E-04,0.000
5.68E-04,0.000
5.69E-04,0.000
5.69E-04,4.760
5.69E-04,4.760
5.69E-04,4.800
5.69E-04,4.760
5.70E-04,4.800
5.70E-04,4.880
5.70E-04,4.760
5.70E-04,4.800
5.70E-04,4.800
5.71E-04,4.800
5.71E-04,4.760
5.71E-04,4.800
5.71E-04,4.760
5.71E-04,4.800
5.72E-04,4.800
5.72E-04,4.800
5.72E-04,4.760
5.72E-04,4.800
5.72E-04,4.760
5.73E-04,4.760
5.73E-04,4.800
5.73E-04,4.840
5.73E-04,0.160
5.73E-04,0.040
5.74E-04,-0.040
5.74E-04,0.000
5.74E-04,-0.040
5.74E-04,-0.040
5.74E-04,-0.080
5.75E-04,-0.040
5.75E-04,-0.040
5.75E-04,-0.040
5.75E-04,-0.040
5.75E-04,-0.040
5.76E-04,0.000
5.76E-04,0.040
5.76E-04,0.000
5.76E-04,-0.040
5.76E-04,0.000
5.77E-04,0.040
5.77E-04,0.000
5.77E-04,-0.040
5.77E-04,5.200
5.77E-04,4.760
5.78E-04,4.800
5.78E-04,4.840
5.78E-04,4.840
5.78E-04,4.760
5.78E-04,4.760
5.79E-04,4.800
5.79E-04,4.760
5.79E-04,4.800
5.79E-04,4.840
5.79E-04,4.760
5.80E-04,4.800
5.80E-04,4.800
5.80E-04,4.800
5.80E-04,4.800
5.80E-04,4.800
5.81E-04,4.800
5.81E-04,4.800
5.81E-04,4.800
5.81E-04,4.800
5.81E-04,4.760
5.82E-04,-0.400
5.82E-04,-0.080
5.82E-04,-0.040
5.82E-04,-0.040
5.82E-04,-0.040
5.83E-04,0.000
5.83E-04,-0.040
5.83E-04,0.000
5.83E-04,-0.040
5.83E-04,-0.040
5.84E-04,0.000
5.84E-04,0.040
5.84E-04,0.000
5.84E-04,0.000
5.84E-04,0.040
5.85E-04,0.000
5.85E-04,0.000
5.85E-04,-0.040
5.85E-04,-0.040
5.85E-04,0.000
5.86E-04,0.120
5.86E-04,4.720
5.86E-04,4.760
5.86E-04,4.800
5.86E-04,4.840
5.87E-04,4.760
5.87E-04,4.800
5.87E-04,4.800
5.87E-04,4.760
5.87E-04,4.800
5.88E-04,4.800
5.88E-04,4.840
5.88E-04,4.760
5.88E-04,4.800
5.88E-04,4.760
5.89E-04,4.800
5.89E-04,4.800
5.89E-04,4.800
5.89E-04,4.800
5.89E-04,4.760
5.90E-04,4.800
5.90E-04,4.800
5.90E-04,4.800
5.90E-04,0.200
5.90E-04,0.000
5.91E-04,-0.040
5.91E-04,0.000
5.91E-04,0.000
5.91E-04,-0.080
5.91E-04,-0.040
5.92E-04,-0.040
5.92E-04,-0.040
5.92E-04,-0.040
5.92E-04,0.000
5.92E-04,-0.040
5.93E-04,0.000
5.93E-04,-0.040
5.93E-04,-0.040
5.93E-04,-0.040
5.93E-04,-0.040
5.94E-04,-0.040
5.94E-04,0.000
5.94E-04,0.000
5.94E-04,5.160
5.94E-04,4.880
5.95E-04,4.840
5.95E-04,4.840
5.95E-04,4.760
5.95E-04,4.800
5.95E-04,4.800
5.96E-04,4.760
5.96E-04,4.800
5.96E-04,4.760
5.96E-04,4.760
5.96E-04,4.800
5.97E-04,4.800
5.97E-04,4.800
5.97E-04,4.800
5.97E-04,4.840
5.97E-04,4.760
5.98E-04,4.800
5.98E-04,4.800
5.98E-04,4.800
5.98E-04,4.840
5.98E-04,4.760
5.99E-04,-0.480
5.99E-04,-0.080
5.99E-04,-0.040
5.99E-04,-0.040
5.99E-04,0.000
6.00E-04,-0.080
6.00E-04,-0.040
6.00E-04,-0.040
6.00E-04,-0.040
6.00E-04,0.040
6.01E-04,-0.040
6.01E-04,-0.040
6.01E-04,-0.040
6.01E-04,-0.040
6.01E-04,-0.040
6.02E-04,0.040
6.02E-04,-0.040
6.02E-04,0.000
6.02E-04,-0.040
6.02E-04,0.000
6.03E-04,0.200
6.03E-04,4.800
6.03E-04,4.760
6.03E-04,4.800
6.03E-04,4.800
6.04E-04,4.800
6.04E-04,4.800
6.04E-04,4.760
6.04E-04,4.800
6.04E-04,4.800
6.05E-04,4.840
6.05E-04,4.760
6.05E-04,4.800
6.05E-04,4.800
6.05E-04,4.800
6.06E-04,4.800
6.06E-04,4.800
6.06E-04,4.720
6.06E-04,4.800
6.06E-04,4.800
6.07E-04,4.760
6.07E-04,4.760
6.07E-04,4.800
6.07E-04,0.160
6.07E-04,0.080
6.08E-04,0.000
6.08E-04,-0.040
6.08E-04,-0.040
6.08E-04,0.000
6.08E-04,0.000
6.09E-04,0.000
6.09E-04,-0.040
6.09E-04,0.000
6.09E-04,0.000
6.09E-04,-0.040
6.10E-04,0.000
6.10E-04,-0.040
6.10E-04,0.000
6.10E-04,-0.040
6.10E-04,0.040
6.11E-04,-0.040
6.11E-04,-0.040
6.11E-04,-0.040
6.11E-04,5.120
6.11E-04,4.840
6.12E-04,4.760
6.12E-04,4.800
6.12E-04,4.800
6.12E-04,4.840
6.12E-04,4.840
6.13E-04,4.800
6.13E-04,4.800
6.13E-04,4.760
6.13E-04,4.840
6.13E-04,4.760
6.14E-04,4.800
6.14E-04,4.800
6.14E-04,4.800
6.14E-04,4.840
6.14E-04,4.760
6.15E-04,4.800
6.15E-04,4.800
6.15E-04,4.800
6.15E-04,4.800
6.15E-04,4.800
6.16E-04,-0.560
6.16E-04,-0.080
6.16E-04,0.000
6.16E-04,-0.040
6.16E-04,0.000
6.17E-04,-0.040
6.17E-04,-0.080
6.17E-04,0.000
6.17E-04,-0.040
6.17E-04,-0.040
6.18E-04,0.000
6.18E-04,-0.040
6.18E-04,-0.040
6.18E-04,0.000
6.18E-04,0.000
6.19E-04,-0.040
6.19E-04,-0.040
6.19E-04,0.000
6.19E-04,-0.040
6.19E-04,-0.040
6.20E-04,0.600
6.20E-04,4.760
6.20E-04,4.760
6.20E-04,4.800
6.20E-04,4.760
6.21E-04,4.800
6.21E-04,4.760
6.21E-04,4.760
6.21E-04,4.800
6.21E-04,4.840
6.22E-04,4.760
6.22E-04,4.760
6.22E-04,4.800
6.22E-04,4.800
6.22E-04,4.800
6.23E-04,4.800
6.23E-04,4.800
6.23E-04,4.800
6.23E-04,4.800
6.23E-04,4.800
6.24E-04,4.800
6.24E-04,4.800
6.24E-04,4.840
6.24E-04,0.160
6.24E-04,0.000
6.25E-04,0.000
6.25E-04,0.000
6.25E-04,-0.040
6.25E-04,-0.040
6.25E-04,0.000
6.26E-04,0.000
6.26E-04,-0.040
6.26E-04,-0.040
6.26E-04,0.000
6.26E-04,-0.040
6.27E-04,0.000
6.27E-04,0.000
6.27E-04,-0.040
6.27E-04,-0.040
6.27E-04,0.000
6.28E-04,0.000
6.28E-04,-0.040
6.28E-04,0.000
6.28E-04,5.040
6.28E-04,4.760
6.29E-04,4.800
6.29E-04,4.760
6.29E-04,4.800
6.29E-04,4.760
6.29E-04,4.800
6.30E-04,4.800
6.30E-04,4.840
6.30E-04,4.760
6.30E-04,4.840
6.30E-04,4.760
6.31E-04,4.760
6.31E-04,4.840
6.31E-04,4.760
6.31E-04,4.800
6.31E-04,4.840
6.32E-04,4.840
6.32E-04,4.760
6.32E-04,4.760
6.32E-04,4.800
6.32E-04,4.760
6.33E-04,-0.600
6.33E-04,-0.080
6.33E-04,-0.040
6.33E-04,-0.040
6.33E-04,0.000
6.34E-04,0.000
6.34E-04,-0.040
6.34E-04,0.040
6.34E-04,0.000
6.34E-04,0.000
6.35E-04,-0.040
6.35E-04,0.000
6.35E-04,0.000
6.35E-04,0.000
6.35E-04,0.040
6.36E-04,0.040
6.36E-04,-0.040
6.36E-04,-0.040
6.36E-04,-0.040
6.36E-04,0.000
6.37E-04,1.040
6.37E-04,4.760
6.37E-04,4.760
6.37E-04,4.800
6.37E-04,4.760
6.38E-04,4.800
6.38E-04,4.760
6.38E-04,4.760
6.38E-04,4.840
6.38E-04,4.840
6.39E-04,4.800
6.39E-04,4.800
6.39E-04,4.800
6.39E-04,4.800
6.39E-04,4.800
6.40E-04,4.800
6.40E-04,4.800
6.40E-04,4.760
6.40E-04,4.800
6.40E-04,4.760
6.41E-04,4.800
6.41E-04,4.760
6.41E-04,4.800
6.41E-04,0.160
6.41E-04,0.000
6.42E-04,-0.040
6.42E-04,-0.040
6.42E-04,0.000
6.42E-04,0.000
6.42E-04,-0.040
6.43E-04,-0.040
6.43E-04,-0.040
6.43E-04,0.000
6.43E-04,0.000
6.43E-04,0.000
6.44E-04,-0.040
6.44E-04,0.000
6.44E-04,-0.040
6.44E-04,-0.040
6.44E-04,-0.040
6.45E-04,-0.040
6.45E-04,0.000
6.45E-04,-0.040
6.45E-04,5.000
6.45E-04,4.760
6.46E-04,4.800
6.46E-04,4.800
6.46E-04,4.800
6.46E-04,4.800
6.46E-04,4.800
6.47E-04,4.800
6.47E-04,4.800
6.47E-04,4.760
6.47E-04,4.800
6.47E-04,4.760
6.48E-04,4.760
6.48E-04,4.800
6.48E-04,4.800
6.48E-04,4.800
6.48E-04,4.800
6.49E-04,4.800
6.49E-04,4.800
6.49E-04,4.800
6.49E-04,4.800
6.49E-04,4.760
6.50E-04,-0.680
6.50E-04,-0.080
6.50E-04,0.040
6.50E-04,-0.040
6.50E-04,-0.040
6.51E-04,0.000
6.51E-04,-0.040
6.51E-04,-0.040
6.51E-04,-0.040
6.51E-04,-0.040
6.52E-04,0.000
6.52E-04,0.000
6.52E-04,0.040
6.52E-04,0.000
6.52E-04,0.040
6.53E-04,-0.040
6.53E-04,-0.040
6.53E-04,0.040
6.53E-04,-0.040
6.53E-04,0.000
6.54E-04,1.600
6.54E-04,4.720
6.54E-04,4.800
6.54E-04,4.800
6.54E-04,4.800
6.55E-04,4.760
6.55E-04,4.800
6.55E-04,4.800
6.55E-04,4.880
6.55E-04,4.800
6.56E-04,4.840
6.56E-04,4.840
6.56E-04,4.840
6.56E-04,4.840
6.56E-04,4.760
6.57E-04,4.800
6.57E-04,4.800
6.57E-04,4.800
6.57E-04,4.800
6.57E-04,4.840
6.58E-04,4.840
6.58E-04,4.840
6.58E-04,4.840
6.58E-04,0.120
6.58E-04,0.040
6.59E-04,-0.040
6.59E-04,-0.040
6.59E-04,0.040
6.59E-04,-0.040
6.59E-04,0.000
6.60E-04,0.000
6.60E-04,-0.040
6.60E-04,-0.040
6.60E-04,0.000
6.60E-04,-0.040
6.61E-04,-0.040
6.61E-04,-0.040
6.61E-04,-0.040
6.61E-04,-0.040
6.61E-04,-0.040
6.62E-04,-0.040
6.62E-04,0.040
6.62E-04,0.000
6.62E-04,4.840
6.62E-04,4.840
6.63E-04,4.800
6.63E-04,4.800
6.63E-04,4.800
6.63E-04,4.800
6.63E-04,4.840
6.64E-04,4.760
6.64E-04,4.760
6.64E-04,4.800
6.64E-04,4.760
6.64E-04,4.800
6.65E-04,4.840
6.65E-04,4.760
6.65E-04,4.760
6.65E-04,4.800
6.65E-04,4.800
6.66E-04,4.800
6.66E-04,4.800
6.66E-04,4.760
6.66E-04,4.800
6.66E-04,4.760
6.67E-04,-0.640
6.67E-04,0.000
6.67E-04,0.040
6.67E-04,-0.040
6.67E-04,0.000
6.68E-04,-0.040
6.68E-04,-0.040
6.68E-04,-0.040
6.68E-04,-0.040
6.68E-04,-0.040
6.69E-04,0.000
6.69E-04,0.040
6.69E-04,-0.040
6.69E-04,0.000
6.69E-04,-0.040
6.70E-04,0.040
6.70E-04,-0.040
6.70E-04,0.000
6.70E-04,-0.040
6.70E-04,0.000
6.71E-04,2.160
6.71E-04,4.760
6.71E-04,4.760
6.71E-04,4.800
6.71E-04,4.800
6.72E-04,4.880
6.72E-04,4.840
6.72E-04,4.760
6.72E-04,4.760
6.72E-04,4.840
6.73E-04,4.800
6.73E-04,4.800
6.73E-04,4.800
6.73E-04,4.800
6.73E-04,4.800
6.74E-04,4.800
6.74E-04,4.800
6.74E-04,4.800
6.74E-04,4.760
6.74E-04,4.800
6.75E-04,4.840
6.75E-04,4.760
6.75E-04,4.760
6.75E-04,0.080
6.75E-04,0.040
6.76E-04,-0.040
6.76E-04,0.000
6.76E-04,0.000
6.76E-04,0.000
6.76E-04,-0.040
6.77E-04,-0.040
6.77E-04,-0.040
6.77E-04,-0.040
6.77E-04,-0.040
6.77E-04,0.000
6.78E-04,0.040
6.78E-04,-0.040
6.78E-04,0.000
6.78E-04,-0.040
6.78E-04,0.040
6.79E-04,0.000
6.79E-04,0.000
6.79E-04,0.000
6.79E-04,4.920
6.79E-04,4.840
6.80E-04,4.760
6.80E-04,4.760
6.80E-04,4.800
6.80E-04,4.800
6.80E-04,4.800
6.81E-04,4.800
6.81E-04,4.840
6.81E-04,4.840
6.81E-04,4.760
6.81E-04,4.760
6.82E-04,4.800
6.82E-04,4.840
6.82E-04,4.840
6.82E-04,4.800
6.82E-04,4.760
6.83E-04,4.760
6.83E-04,4.800
6.83E-04,4.840
6.83E-04,4.840
6.83E-04,4.760
6.84E-04,-0.720
6.84E-04,-0.080
6.84E-04,-0.040
6.84E-04,0.000
6.84E-04,-0.040
6.85E-04,-0.040
6.85E-04,0.000
6.85E-04,0.040
6.85E-04,-0.040
6.85E-04,0.040
6.86E-04,-0.040
6.86E-04,-0.040
6.86E-04,-0.040
6.86E-04,0.000
6.86E-04,-0.040
6.87E-04,-0.040
6.87E-04,-0.040
6.87E-04,0.000
6.87E-04,0.000
6.87E-04,0.040
6.88E-04,2.760
6.88E-04,4.760
6.88E-04,4.800
6.88E-04,4.800
6.88E-04,4.800
6.89E-04,4.800
6.89E-04,4.800
6.89E-04,4.800
6.89E-04,4.800
6.89E-04,4.760
6.90E-04,4.840
6.90E-04,4.760
6.90E-04,4.800
6.90E-04,4.800
6.90E-04,4.760
6.91E-04,4.800
6.91E-04,4.760
6.91E-04,4.760
6.91E-04,4.800
6.91E-04,4.760
6.92E-04,4.800
6.92E-04,4.800
6.92E-04,4.760
6.92E-04,0.080
6.92E-04,0.000
6.93E-04,0.000
6.93E-04,-0.040
6.93E-04,0.000
6.93E-04,0.000
6.93E-04,0.000
6.94E-04,0.000
6.94E-04,-0.040
6.94E-04,-0.040
6.94E-04,-0.040
6.94E-04,0.000
6.95E-04,0.000
6.95E-04,-0.040
6.95E-04,0.000
6.95E-04,0.000
6.95E-04,0.040
6.96E-04,0.000
6.96E-04,0.040
6.96E-04,-0.040
6.96E-04,4.800
6.96E-04,4.800
6.97E-04,4.800
6.97E-04,4.800
6.97E-04,4.800
6.97E-04,4.800
6.97E-04,4.800
6.98E-04,4.800
6.98E-04,4.760
6.98E-04,4.800
6.98E-04,4.760
6.98E-04,4.840
6.99E-04,4.800
6.99E-04,4.800
6.99E-04,4.800
6.99E-04,4.800
6.99E-04,4.840
7.00E-04,4.760
7.00E-04,4.800
7.00E-04,4.800
7.00E-04,4.800
7.00E-04,4.760
7.01E-04,-0.680
7.01E-04,0.000
7.01E-04,0.000
7.01E-04,0.000
7.01E-04,-0.040
7.02E-04,-0.040
7.02E-04,-0.040
7.02E-04,0.000
7.02E-04,-0.080
7.02E-04,-0.040
7.03E-04,0.000
7.03E-04,0.000
7.03E-04,-0.040
7.03E-04,0.000
7.03E-04,0.000
7.04E-04,0.000
7.04E-04,0.040
7.04E-04,0.040
7.04E-04,0.000
7.04E-04,-0.040
7.05E-04,3.320
7.05E-04,4.760
7.05E-04,4.800
7.05E-04,4.800
7.05E-04,4.800
7.06E-04,4.800
7.06E-04,4.800
7.06E-04,4.760
7.06E-04,4.800
7.06E-04,4.800
7.07E-04,4.800
7.07E-04,4.800
7.07E-04,4.760
7.07E-04,4.800
7.07E-04,4.760
7.08E-04,4.760
7.08E-04,4.800
7.08E-04,4.840
7.08E-04,4.840
7.08E-04,4.760
7.09E-04,4.760
7.09E-04,4.800
7.09E-04,4.760
7.09E-04,0.040
7.09E-04,0.000
7.10E-04,-0.080
7.10E-04,-0.040
7.10E-04,-0.040
7.10E-04,-0.040
7.10E-04,-0.080
7.11E-04,-0.040
7.11E-04,0.000
7.11E-04,0.000
7.11E-04,-0.040
7.11E-04,-0.040
7.12E-04,-0.040
7.12E-04,-0.040
7.12E-04,0.000
7.12E-04,-0.040
7.12E-04,0.040
7.13E-04,0.000
7.13E-04,0.000
7.13E-04,-0.040
7.13E-04,4.760
7.13E-04,4.840
7.14E-04,4.840
7.14E-04,4.800
7.14E-04,4.840
7.14E-04,4.800
7.14E-04,4.760
7.15E-04,4.840
7.15E-04,4.840
7.15E-04,4.840
7.15E-04,4.840
7.15E-04,4.760
7.16E-04,4.760
7.16E-04,4.800
7.16E-04,4.760
7.16E-04,4.760
7.16E-04,4.800
7.17E-04,4.840
7.17E-04,4.760
7.17E-04,4.760
7.17E-04,4.800
7.17E-04,4.760
7.18E-04,-0.680
7.18E-04,-0.040
7.18E-04,-0.040
7.18E-04,-0.040
7.18E-04,-0.040
7.19E-04,0.000
7.19E-04,-0.040
7.19E-04,-0.040
7.19E-04,0.000
7.19E-04,0.000
7.20E-04,0.000
7.20E-04,-0.040
7.20E-04,-0.040
7.20E-04,0.000
7.20E-04,0.040
7.21E-04,-0.040
7.21E-04,-0.040
7.21E-04,0.040
7.21E-04,-0.040
7.21E-04,0.000
7.22E-04,3.840
7.22E-04,4.760
7.22E-04,4.760
7.22E-04,4.800
7.22E-04,4.760
7.23E-04,4.800
7.23E-04,4.800
7.23E-04,4.800
7.23E-04,4.840
7.23E-04,4.760
7.24E-04,4.760
7.24E-04,4.800
7.24E-04,4.760
7.24E-04,4.760
7.24E-04,4.800
7.25E-04,4.760
7.25E-04,4.800
7.25E-04,4.760
7.25E-04,4.800
7.25E-04,4.760
7.26E-04,4.800
7.26E-04,4.760
7.26E-04,4.800
7.26E-04,0.080
7.26E-04,0.000
7.27E-04,-0.040
7.27E-04,-0.040
7.27E-04,0.000
7.27E-04,0.000
7.27E-04,0.000
7.28E-04,0.000
7.28E-04,-0.040
7.28E-04,-0.040
7.28E-04,0.000
7.28E-04,0.040
7.29E-04,-0.040
7.29E-04,0.000
7.29E-04,-0.040
7.29E-04,-0.040
7.29E-04,0.000
7.30E-04,0.000
7.30E-04,0.040
7.30E-04,0.040
7.30E-04,4.720
7.30E-04,4.800
7.31E-04,4.800
7.31E-04,4.840
7.31E-04,4.800
7.31E-04,4.800
7.31E-04,4.800
7.32E-04,4.840
7.32E-04,4.800
7.32E-04,4.800
7.32E-04,4.760
7.32E-04,4.800
7.33E-04,4.800
7.33E-04,4.800
7.33E-04,4.800
7.33E-04,4.800
7.33E-04,4.720
7.34E-04,4.800
7.34E-04,4.800
7.34E-04,4.800
7.34E-04,4.760
7.34E-04,4.760
7.35E-04,-0.640
7.35E-04,-0.040
7.35E-04,-0.040
7.35E-04,0.000
7.35E-04,0.000
7.36E-04,-0.040
7.36E-04,0.000
7.36E-04,-0.040
7.36E-04,-0.040
7.36E-04,-0.040
7.37E-04,-0.040
7.37E-04,-0.040
7.37E-04,0.000
7.37E-04,0.000
7.37E-04,0.040
7.38E-04,0.000
7.38E-04,-0.040
7.38E-04,0.000
7.38E-04,0.000
7.38E-04,0.000
7.39E-04,4.280
7.39E-04,4.760
7.39E-04,4.760
7.39E-04,4.800
7.39E-04,4.840
7.40E-04,4.880
7.40E-04,4.840
7.40E-04,4.840
7.40E-04,4.760
7.40E-04,4.760
7.41E-04,4.800
7.41E-04,4.760
7.41E-04,4.800
7.41E-04,4.840
7.41E-04,4.760
7.42E-04,4.760
7.42E-04,4.800
7.42E-04,4.760
7.42E-04,4.800
7.42E-04,4.760
7.43E-04,4.800
7.43E-04,4.800
7.43E-04,4.800
7.43E-04,0.000
7.43E-04,0.040
7.44E-04,-0.040
7.44E-04,-0.040
7.44E-04,0.000
7.44E-04,-0.040
7.44E-04,-0.040
7.45E-04,-0.040
7.45E-04,0.000
7.45E-04,-0.040
7.45E-04,-0.040
7.45E-04,0.000
7.46E-04,0.000
7.46E-04,-0.040
7.46E-04,-0.040
7.46E-04,-0.040
7.46E-04,0.040
7.47E-04,-0.040
7.47E-04,-0.040
7.47E-04,0.000
7.47E-04,4.680
7.47E-04,4.800
7.48E-04,4.840
7.48E-04,4.800
7.48E-04,4.800
7.48E-04,4.800
7.48E-04,4.800
7.49E-04,4.800
7.49E-04,4.880
7.49E-04,4.800
7.49E-04,4.880
7.49E-04,4.760
7.50E-04,4.800
7.50E-04,4.800
7.50E-04,4.800
7.50E-04,4.800
7.50E-04,4.840
7.51E-04,4.840
7.51E-04,4.840
7.51E-04,4.840
7.51E-04,4.760
7.51E-04,4.800
7.52E-04,-0.560
7.52E-04,0.000
7.52E-04,0.000
7.52E-04,0.000
7.52E-04,0.000
7.53E-04,0.000
7.53E-04,-0.040
7.53E-04,-0.040
7.53E-04,0.000
7.53E-04,0.040
7.54E-04,-0.040
7.54E-04,0.000
7.54E-04,-0.040
7.54E-04,-0.040
7.54E-04,0.000
7.55E-04,-0.040
7.55E-04,0.000
7.55E-04,0.000
7.55E-04,-0.040
7.55E-04,0.040
7.56E-04,4.680
7.56E-04,4.760
7.56E-04,4.800
7.56E-04,4.800
7.56E-04,4.800
7.57E-04,4.840
7.57E-04,4.800
7.57E-04,4.800
7.57E-04,4.800
7.57E-04,4.800
7.58E-04,4.840
7.58E-04,4.800
7.58E-04,4.800
7.58E-04,4.760
7.58E-04,4.800
7.59E-04,4.760
7.59E-04,4.800
7.59E-04,4.840
7.59E-04,4.840
7.59E-04,4.840
7.60E-04,4.760
7.60E-04,4.760
7.60E-04,4.800
7.60E-04,0.040
7.60E-04,0.000
7.61E-04,-0.040
7.61E-04,-0.040
7.61E-04,-0.040
7.61E-04,-0.040
7.61E-04,-0.040
7.62E-04,-0.040
7.62E-04,-0.040
7.62E-04,0.000
7.62E-04,-0.040
7.62E-04,-0.040
7.63E-04,-0.040
7.63E-04,-0.040
7.63E-04,0.000
7.63E-04,0.040
7.63E-04,0.000
7.64E-04,-0.040
7.64E-04,-0.040
7.64E-04,0.000
7.64E-04,4.600
7.64E-04,4.840
7.65E-04,4.800
7.65E-04,4.800
7.65E-04,4.800
7.65E-04,4.760
7.65E-04,4.800
7.66E-04,4.760
7.66E-04,4.800
7.66E-04,4.840
7.66E-04,4.760
7.66E-04,4.800
7.67E-04,4.800
7.67E-04,4.800
7.67E-04,4.800
7.67E-04,4.800
7.67E-04,4.760
7.68E-04,4.760
7.68E-04,4.800
7.68E-04,4.760
7.68E-04,4.800
7.68E-04,4.760
7.69E-04,-0.520
7.69E-04,-0.040
7.69E-04,0.000
7.69E-04,-0.040
7.69E-04,0.000
7.70E-04,-0.080
7.70E-04,-0.040
7.70E-04,-0.040
7.70E-04,-0.040
7.70E-04,0.000
7.71E-04,0.000
7.71E-04,0.000
7.71E-04,-0.040
7.71E-04,0.000
7.71E-04,0.000
7.72E-04,0.000
7.72E-04,0.000
7.72E-04,-0.040
7.72E-04,0.000
7.72E-04,0.000
7.73E-04,5.120
7.73E-04,4.760
7.73E-04,4.800
7.73E-04,4.800
7.73E-04,4.800
7.74E-04,4.840
7.74E-04,4.760
7.74E-04,4.800
7.74E-04,4.760
7.74E-04,4.800
7.75E-04,4.800
7.75E-04,4.800
7.75E-04,4.800
7.75E-04,4.800
7.75E-04,4.760
7.76E-04,4.760
7.76E-04,4.800
7.76E-04,4.760
7.76E-04,4.800
7.76E-04,4.760
7.77E-04,4.760
7.77E-04,4.760
7.77E-04,4.840
7.77E-04,0.000
7.77E-04,0.000
7.78E-04,0.000
7.78E-04,-0.040
7.78E-04,-0.040
7.78E-04,0.000
7.78E-04,0.000
7.79E-04,0.000
7.79E-04,0.000
7.79E-04,-0.040
7.79E-04,-0.040
7.79E-04,0.000
7.80E-04,0.000
7.80E-04,-0.040
7.80E-04,0.000
7.80E-04,0.000
7.80E-04,0.000
7.81E-04,-0.040
7.81E-04,0.000
7.81E-04,0.000
7.81E-04,4.560
7.81E-04,4.840
7.82E-04,4.760
7.82E-04,4.800
7.82E-04,4.800
7.82E-04,4.880
7.82E-04,4.800
7.83E-04,4.840
7.83E-04,4.840
7.83E-04,4.840
7.83E-04,4.760
7.83E-04,4.800
7.84E-04,4.800
7.84E-04,4.840
7.84E-04,4.840
7.84E-04,4.760
7.84E-04,4.800
7.85E-04,4.800
7.85E-04,4.800
7.85E-04,4.880
7.85E-04,4.800
7.85E-04,4.800
7.86E-04,-0.400
7.86E-04,-0.040
7.86E-04,-0.040
7.86E-04,0.000
7.86E-04,-0.040
7.87E-04,-0.040
7.87E-04,-0.040
7.87E-04,-0.040
7.87E-04,-0.040
7.87E-04,0.040
7.88E-04,-0.040
7.88E-04,-0.040
7.88E-04,0.000
7.88E-04,-0.040
7.88E-04,0.000
7.89E-04,-0.040
7.89E-04,-0.040
7.89E-04,-0.040
7.89E-04,0.000
7.89E-04,0.040
7.90E-04,5.480
7.90E-04,4.800
7.90E-04,4.800
7.90E-04,4.800
7.90E-04,4.840
7.91E-04,4.760
7.91E-04,4.760
7.91E-04,4.840
7.91E-04,4.880
7.91E-04,4.840
7.92E-04,4.760
7.92E-04,4.760
7.92E-04,4.800
7.92E-04,4.760
7.92E-04,4.800
7.93E-04,4.760
7.93E-04,4.800
7.93E-04,4.760
7.93E-04,4.800
7.93E-04,4.800
7.94E-04,4.760
7.94E-04,4.800
7.94E-04,4.800
7.94E-04,0.000
7.94E-04,0.000
7.95E-04,-0.040
7.95E-04,-0.040
7.95E-04,0.000
7.95E-04,0.000
7.95E-04,0.000
7.96E-04,-0.040
7.96E-04,-0.040
7.96E-04,-0.040
7.96E-04,-0.040
7.96E-04,0.000
7.97E-04,-0.040
7.97E-04,-0.040
7.97E-04,-0.040
7.97E-04,-0.040
7.97E-04,0.040
7.98E-04,-0.040
7.98E-04,0.000
7.98E-04,0.000
7.98E-04,4.600
7.98E-04,4.800
7.99E-04,4.840
7.99E-04,4.760
7.99E-04,4.800
7.99E-04,4.840
7.99E-04,4.800
8.00E-04,4.840
8.00E-04,4.800
8.00E-04,4.800
8.00E-04,4.800
8.00E-04,4.760
8.01E-04,4.760
8.01E-04,4.800
8.01E-04,4.800
8.01E-04,4.800
8.01E-04,4.800
8.02E-04,4.800
8.02E-04,4.800
8.02E-04,4.800
8.02E-04,4.760
8.02E-04,4.760
8.03E-04,-0.360
8.03E-04,-0.040
8.03E-04,-0.040
8.03E-04,0.000
8.03E-04,-0.040
8.04E-04,-0.040
8.04E-04,-0.040
8.04E-04,-0.040
8.04E-04,0.000
8.04E-04,0.040
8.05E-04,0.000
8.05E-04,0.000
8.05E-04,0.000
8.05E-04,0.000
8.05E-04,0.040
8.06E-04,0.000
8.06E-04,0.000
8.06E-04,0.000
8.06E-04,-0.040
8.06E-04,0.040
8.07E-04,5.880
8.07E-04,4.760
8.07E-04,4.760
8.07E-04,4.800
8.07E-04,4.800
8.08E-04,4.840
8.08E-04,4.800
8.08E-04,4.800
8.08E-04,4.800
8.08E-04,4.800
8.09E-04,4.760
8.09E-04,4.800
8.09E-04,4.800
8.09E-04,4.800
8.09E-04,4.800
8.10E-04,4.760
8.10E-04,4.800
8.10E-04,4.840
8.10E-04,4.760
8.10E-04,4.760
8.11E-04,4.800
8.11E-04,4.840
8.11E-04,4.760
8.11E-04,-0.080
8.11E-04,0.000
8.12E-04,-0.040
8.12E-04,0.000
8.12E-04,-0.040
8.12E-04,-0.040
8.12E-04,-0.040
8.13E-04,-0.040
8.13E-04,0.000
